节点500_705_QEPB04081__352__20-50-55-611.txt的数据

Date: Wed Nov 12 20:50:55 CST 2025
User: PC
Spectrometer: QEPB0408
触发模式: 0
积分时间 (秒): 1.000000E-2
Scans to average: 1
启用暗噪声校正: true
启用非线性校正: false
滑动平均宽度: 0
X轴模式: Wavelengths
Number of Pixels in Spectrum: 1044
>>>>>Begin Spectral Data<<<<<
220.843	5.62
221.644	5.62
222.444	5.62
223.244	4.62
224.045	4.62
224.845	6.62
225.645	6.62
226.445	7.62
227.245	7.62
228.045	6.62
228.845	8.62
229.645	7.62
230.444	7.62
231.244	7.62
232.043	8.62
232.843	7.62
233.642	7.62
234.442	8.62
235.241	7.62
236.04	8.62
236.839	6.62
237.638	8.62
238.437	9.62
239.236	11.62
240.035	11.62
240.833	11.62
241.632	11.62
242.43	14.62
243.229	12.62
244.027	12.62
244.826	11.62
245.624	11.62
246.422	13.62
247.22	12.62
248.018	12.62
248.816	14.62
249.614	16.62
250.412	14.62
251.21	17.62
252.007	17.62
252.805	17.62
253.602	16.62
254.4	16.62
255.197	17.62
255.994	21.62
256.791	20.62
257.589	21.62
258.386	20.62
259.183	20.62
259.979	20.62
260.776	22.62
261.573	22.62
262.37	24.62
263.166	26.62
263.963	23.62
264.759	27.62
265.556	22.62
266.352	27.62
267.148	26.62
267.944	29.62
268.74	25.62
269.536	28.62
270.332	28.62
271.128	30.62
271.924	28.62
272.719	34.62
273.515	29.62
274.311	32.62
275.106	33.62
275.901	30.62
276.697	34.62
277.492	33.62
278.287	32.62
279.082	31.62
279.877	33.62
280.672	32.62
281.467	35.62
282.262	34.62
283.056	33.62
283.851	37.62
284.646	33.62
285.44	35.62
286.234	32.62
287.029	34.62
287.823	31.62
288.617	33.62
289.411	31.62
290.205	33.62
290.999	33.62
291.793	30.62
292.587	35.62
293.381	29.62
294.174	30.62
294.968	30.62
295.761	26.62
296.555	27.62
297.348	27.62
298.141	26.62
298.935	29.62
299.728	23.62
300.521	24.62
301.314	26.62
302.107	21.62
302.899	25.62
303.692	23.62
304.485	24.62
305.277	25.62
306.07	21.62
306.862	20.62
307.655	21.62
308.447	18.62
309.239	18.62
310.031	20.62
310.823	18.62
311.615	21.62
312.407	17.62
313.199	18.62
313.991	17.62
314.783	16.62
315.574	16.62
316.366	14.62
317.157	15.62
317.949	16.62
318.74	13.62
319.531	16.62
320.322	15.62
321.113	14.62
321.904	13.62
322.695	10.62
323.486	14.62
324.277	13.62
325.068	13.62
325.858	10.62
326.649	12.62
327.439	12.62
328.23	11.62
329.02	13.62
329.81	13.62
330.6	10.62
331.391	11.62
332.181	9.62
332.971	11.62
333.76	11.62
334.55	10.62
335.34	13.62
336.13	12.62
336.919	12.62
337.709	12.62
338.498	12.62
339.287	14.62
340.077	11.62
340.866	12.62
341.655	12.62
342.444	12.62
343.233	11.62
344.022	10.62
344.811	12.62
345.6	11.62
346.388	10.62
347.177	10.62
347.965	12.62
348.754	12.62
349.542	8.62
350.33	12.62
351.119	9.62
351.907	7.62
352.695	9.62
353.483	11.62
354.271	10.62
355.059	10.62
355.846	9.62
356.634	8.62
357.422	10.62
358.209	9.62
358.997	9.62
359.784	9.62
360.571	7.62
361.359	11.62
362.146	7.62
362.933	11.62
363.72	9.62
364.507	8.62
365.294	9.62
366.081	9.62
366.867	13.62
367.654	11.62
368.44	6.62
369.227	8.62
370.013	9.62
370.8	8.62
371.586	9.62
372.372	10.62
373.158	9.62
373.944	7.62
374.73	7.62
375.516	9.62
376.302	7.62
377.088	10.62
377.873	12.62
378.659	12.62
379.445	8.62
380.23	10.62
381.015	9.62
381.801	10.62
382.586	10.62
383.371	11.62
384.156	10.62
384.941	8.62
385.726	10.62
386.511	12.62
387.296	12.62
388.08	10.62
388.865	12.62
389.649	9.62
390.434	10.62
391.218	11.62
392.003	7.62
392.787	9.62
393.571	10.62
394.355	12.62
395.139	14.62
395.923	10.62
396.707	14.62
397.491	10.62
398.274	11.62
399.058	14.62
399.842	10.62
400.625	16.62
401.408	10.62
402.192	14.62
402.975	10.62
403.758	14.62
404.541	14.62
405.324	14.62
406.107	14.62
406.89	17.62
407.673	13.62
408.456	15.62
409.238	16.62
410.021	18.62
410.803	14.62
411.586	18.62
412.368	15.62
413.151	19.62
413.933	19.62
414.715	18.62
415.497	19.62
416.279	18.62
417.061	18.62
417.843	18.62
418.624	18.62
419.406	20.62
420.188	19.62
420.969	21.62
421.751	21.62
422.532	22.62
423.313	22.62
424.095	21.62
424.876	25.62
425.657	24.62
426.438	23.62
427.219	23.62
428	25.62
428.78	28.62
429.561	28.62
430.342	30.62
431.122	28.62
431.903	32.62
432.683	34.62
433.464	33.62
434.244	38.62
435.024	36.62
435.804	42.62
436.584	43.62
437.364	44.62
438.144	52.62
438.924	49.62
439.704	50.62
440.483	58.62
441.263	59.62
442.042	67.62
442.822	71.62
443.601	78.62
444.38	78.62
445.16	87.62
445.939	96.62
446.718	107.62
447.497	110.62
448.276	119.62
449.054	134.62
449.833	146.62
450.612	159.62
451.391	180.62
452.169	197.62
452.948	217.62
453.726	235.62
454.504	271.62
455.282	297.62
456.061	334.62
456.839	367.62
457.617	413.62
458.395	461.62
459.172	513.62
459.95	574.62
460.728	635.62
461.506	710.62
462.283	790.62
463.061	880.62
463.838	990.62
464.615	1083.62
465.393	1225.62
466.17	1358.62
466.947	1510.62
467.724	1681.62
468.501	1836.62
469.278	2053.62
470.055	2282.62
470.831	2515.62
471.608	2762.62
472.385	3038.62
473.161	3353.62
473.938	3694.62
474.714	4042.62
475.49	4433.62
476.266	4841.62
477.043	5305.62
477.819	5818.62
478.595	6346.62
479.371	6927.62
480.146	7527.62
480.922	8300.62
481.698	9004.62
482.473	9783.62
483.249	10610.62
484.024	11553.62
484.8	12537.62
485.575	13520.62
486.35	14711.62
487.126	15864.62
487.901	17156.62
488.676	18553.62
489.451	20008.62
490.225	21475.62
491	23002.62
491.775	24632.62
492.55	26336.62
493.324	28114.62
494.099	29822.62
494.873	31596.62
495.647	33342.62
496.422	35080.62
497.196	36894.62
497.97	38534.62
498.744	40076.62
499.518	41631.62
500.292	42984.62
501.066	43998.62
501.839	44963.62
502.613	45781.62
503.387	46428.62
504.16	46864.62
504.934	46984.62
505.707	46994.62
506.48	46607.62
507.253	46204.62
508.027	45550.62
508.8	44535.62
509.573	43530.62
510.346	42547.62
511.118	41537.62
511.891	40269.62
512.664	38802.62
513.437	37323.62
514.209	35952.62
514.982	34575.62
515.754	33167.62
516.526	31842.62
517.298	30572.62
518.071	29366.62
518.843	28180.62
519.615	27051.62
520.387	25995.62
521.159	24957.62
521.93	23927.62
522.702	22944.62
523.474	21974.62
524.245	20994.62
525.017	20128.62
525.788	19242.62
526.56	18492.62
527.331	17613.62
528.102	16737.62
528.873	15905.62
529.644	15184.62
530.415	14490.62
531.186	13761.62
531.957	13047.62
532.728	12414.62
533.498	11769.62
534.269	11062.62
535.039	10551.62
535.81	9954.62
536.58	9430.62
537.351	8915.62
538.121	8440.62
538.891	8012.62
539.661	7520.62
540.431	7147.62
541.201	6770.62
541.971	6413.62
542.741	6104.62
543.51	5777.62
544.28	5502.62
545.05	5254.62
545.819	4971.62
546.588	4781.62
547.358	4552.62
548.127	4300.62
548.896	4080.62
549.665	3884.62
550.434	3673.62
551.203	3467.62
551.972	3330.62
552.741	3141.62
553.51	2939.62
554.278	2775.62
555.047	2648.62
555.815	2508.62
556.584	2360.62
557.352	2201.62
558.121	2103.62
558.889	2001.62
559.657	1874.62
560.425	1773.62
561.193	1692.62
561.961	1604.62
562.729	1502.62
563.496	1419.62
564.264	1348.62
565.032	1270.62
565.799	1200.62
566.567	1133.62
567.334	1078.62
568.101	1017.62
568.869	968.62
569.636	905.62
570.403	858.62
571.17	810.62
571.937	758.62
572.704	715.62
573.471	679.62
574.237	644.62
575.004	601.62
575.771	574.62
576.537	542.62
577.303	505.62
578.07	480.62
578.836	455.62
579.602	427.62
580.368	417.62
581.134	394.62
581.9	368.62
582.666	347.62
583.432	334.62
584.198	316.62
584.964	295.62
585.729	294.62
586.495	275.62
587.26	252.62
588.025	242.62
588.791	233.62
589.556	211.62
590.321	204.62
591.086	187.62
591.851	187.62
592.616	176.62
593.381	167.62
594.146	167.62
594.911	158.62
595.675	148.62
596.44	136.62
597.204	129.62
597.969	128.62
598.733	124.62
599.497	118.62
600.261	112.62
601.025	105.62
601.79	103.62
602.553	100.62
603.317	93.62
604.081	90.62
604.845	85.62
605.609	82.62
606.372	83.62
607.136	75.62
607.899	75.62
608.662	73.62
609.426	67.62
610.189	64.62
610.952	64.62
611.715	62.62
612.478	59.62
613.241	57.62
614.004	54.62
614.767	53.62
615.529	48.62
616.292	48.62
617.055	48.62
617.817	47.62
618.579	46.62
619.342	42.62
620.104	40.62
620.866	41.62
621.628	41.62
622.39	40.62
623.152	36.62
623.914	35.62
624.676	36.62
625.438	31.62
626.199	33.62
626.961	31.62
627.722	30.62
628.484	28.62
629.245	28.62
630.006	27.62
630.768	29.62
631.529	27.62
632.29	26.62
633.051	22.62
633.812	27.62
634.573	23.62
635.333	25.62
636.094	24.62
636.855	19.62
637.615	20.62
638.376	21.62
639.136	17.62
639.896	18.62
640.657	18.62
641.417	19.62
642.177	16.62
642.937	19.62
643.697	15.62
644.457	18.62
645.216	15.62
645.976	13.62
646.736	14.62
647.495	15.62
648.255	14.62
649.014	16.62
649.774	13.62
650.533	14.62
651.292	13.62
652.051	13.62
652.81	12.62
653.569	12.62
654.328	14.62
655.087	14.62
655.846	13.62
656.604	13.62
657.363	12.62
658.121	12.62
658.88	12.62
659.638	13.62
660.397	10.62
661.155	13.62
661.913	11.62
662.671	12.62
663.429	10.62
664.187	10.62
664.945	10.62
665.703	9.62
666.46	8.62
667.218	10.62
667.976	9.62
668.733	10.62
669.49	11.62
670.248	9.62
671.005	10.62
671.762	10.62
672.519	10.62
673.276	9.62
674.033	9.62
674.79	10.62
675.547	8.62
676.304	8.62
677.06	7.62
677.817	9.62
678.574	7.62
679.33	10.62
680.086	9.62
680.843	5.62
681.599	7.62
682.355	6.62
683.111	9.62
683.867	6.62
684.623	7.62
685.379	8.62
686.135	8.62
686.89	7.62
687.646	7.62
688.402	8.62
689.157	6.62
689.912	10.62
690.668	5.62
691.423	6.62
692.178	8.62
692.933	7.62
693.688	7.62
694.443	8.62
695.198	9.62
695.953	5.62
696.708	4.62
697.462	7.62
698.217	8.62
698.972	7.62
699.726	6.62
700.48	7.62
701.235	8.62
701.989	3.62
702.743	8.62
703.497	7.62
704.251	9.62
705.005	8.62
705.759	6.62
706.513	8.62
707.266	8.62
708.02	5.62
708.774	7.62
709.527	7.62
710.28	6.62
711.034	5.62
711.787	9.62
712.54	3.62
713.293	6.62
714.046	7.62
714.799	6.62
715.552	6.62
716.305	7.62
717.058	3.62
717.81	7.62
718.563	8.62
719.315	8.62
720.068	5.62
720.82	9.62
721.573	7.62
722.325	8.62
723.077	8.62
723.829	5.62
724.581	7.62
725.333	6.62
726.085	9.62
726.836	6.62
727.588	8.62
728.34	8.62
729.091	7.62
729.843	9.62
730.594	6.62
731.346	8.62
732.097	10.62
732.848	7.62
733.599	11.62
734.35	8.62
735.101	9.62
735.852	9.62
736.603	9.62
737.354	8.62
738.104	9.62
738.855	8.62
739.605	7.62
740.356	9.62
741.106	8.62
741.856	8.62
742.607	8.62
743.357	10.62
744.107	9.62
744.857	8.62
745.607	9.62
746.357	11.62
747.106	9.62
747.856	9.62
748.606	8.62
749.355	11.62
750.105	9.62
750.854	9.62
751.603	10.62
752.353	8.62
753.102	12.62
753.851	9.62
754.6	12.62
755.349	10.62
756.098	9.62
756.847	9.62
757.595	10.62
758.344	11.62
759.093	9.62
759.841	14.62
760.589	10.62
761.338	11.62
762.086	12.62
762.834	12.62
763.582	10.62
764.331	13.62
765.079	13.62
765.826	14.62
766.574	12.62
767.322	13.62
768.07	12.62
768.817	12.62
769.565	13.62
770.312	13.62
771.06	14.62
771.807	13.62
772.554	16.62
773.302	12.62
774.049	12.62
774.796	16.62
775.543	14.62
776.29	13.62
777.036	16.62
777.783	14.62
778.53	16.62
779.276	14.62
780.023	15.62
780.769	17.62
781.516	16.62
782.262	14.62
783.008	13.62
783.754	12.62
784.5	16.62
785.246	17.62
785.992	14.62
786.738	13.62
787.484	15.62
788.23	14.62
788.975	18.62
789.721	15.62
790.466	13.62
791.212	16.62
791.957	14.62
792.702	13.62
793.447	11.62
794.193	14.62
794.938	12.62
795.683	14.62
796.427	14.62
797.172	13.62
797.917	11.62
798.662	12.62
799.406	12.62
800.151	11.62
800.895	13.62
801.64	10.62
802.384	9.62
803.128	11.62
803.872	10.62
804.616	11.62
805.36	10.62
806.104	9.62
806.848	11.62
807.592	9.62
808.336	8.62
809.079	9.62
809.823	11.62
810.566	9.62
811.31	8.62
812.053	7.62
812.796	8.62
813.539	6.62
814.283	7.62
815.026	10.62
815.769	8.62
816.511	7.62
817.254	10.62
817.997	7.62
818.74	7.62
819.482	9.62
820.225	4.62
820.967	8.62
821.71	5.62
822.452	7.62
823.194	6.62
823.936	7.62
824.678	5.62
825.42	5.62
826.162	7.62
826.904	6.62
827.646	4.62
828.388	6.62
829.129	5.62
829.871	7.62
830.612	4.62
831.354	7.62
832.095	3.62
832.836	7.62
833.577	5.62
834.319	4.62
835.06	6.62
835.801	7.62
836.542	5.62
837.282	3.62
838.023	4.62
838.764	4.62
839.504	6.62
840.245	2.62
840.985	3.62
841.726	4.62
842.466	4.62
843.206	2.62
843.946	4.62
844.687	4.62
845.427	9.62
846.166	5.62
846.906	6.62
847.646	2.62
848.386	3.62
849.125	5.62
849.865	7.62
850.605	4.62
851.344	5.62
852.083	4.62
852.823	3.62
853.562	2.62
854.301	6.62
855.04	2.62
855.779	3.62
856.518	4.62
857.257	1.62
857.995	5.62
858.734	1.62
859.473	1.62
860.211	5.62
860.95	2.62
861.688	2.62
862.426	2.62
863.165	3.62
863.903	4.62
864.641	4.62
865.379	2.62
866.117	3.62
866.855	2.62
867.593	2.62
868.33	2.62
869.068	1.62
869.806	2.62
870.543	0.62
871.28	2.62
872.018	1.62
872.755	1.62
873.492	2.62
874.229	1.62
874.967	1.62
875.703	3.62
876.44	2.62
877.177	1.62
877.914	0.62
878.651	1.62
879.387	3.62
880.124	-0.38
880.86	2.62
881.597	0.62
882.333	1.62
883.069	1.62
883.806	0.62
884.542	3.62
885.278	0.62
886.014	-0.38
886.749	0.62
887.485	0.62
888.221	0.62
888.957	-1.38
889.692	2.62
890.428	0.62
891.163	0.62
891.899	2.62
892.634	3.62
893.369	-0.38
894.104	1.62
894.839	-0.38
895.574	3.62
896.309	-0.38
897.044	1.62
897.779	-0.38
898.514	1.62
899.248	1.62
899.983	-1.38
900.717	1.62
901.452	0.62
902.186	-0.38
902.92	-0.38
903.654	-0.38
904.389	0.62
905.123	-0.38
905.857	1.62
906.59	2.62
907.324	2.62
908.058	2.62
908.792	0.62
909.525	1.62
910.259	2.62
910.992	-0.38
911.726	0.62
912.459	0.62
913.192	1.62
913.925	0.62
914.658	-0.38
915.391	-1.38
916.124	2.62
916.857	-0.38
917.59	-0.38
918.323	0.62
919.055	2.62
919.788	-2.38
920.521	-1.38
921.253	-1.38
921.985	-0.38
922.718	-1.38
923.45	2.62
924.182	-0.38
924.914	-1.38
925.646	-1.38
926.378	-1.38
927.11	2.62
927.841	-1.38
928.573	0.62
929.305	0.62
930.036	-0.38
930.768	-3.38
931.499	0.62
932.23	-0.38
932.962	-0.38
933.693	-0.38
934.424	-0.38
935.155	0.62
935.886	0.62
936.617	1.62
937.348	0.62
938.078	0.62
938.809	-0.38
939.54	1.62
940.27	-1.38
941.001	-0.38
941.731	-2.38
942.461	1.62
943.191	-1.38
943.922	-1.38
944.652	1.62
945.382	1.62
946.112	-0.38
946.841	-0.38
947.571	-1.38
948.301	-1.38
949.031	2.62
949.76	-1.38
950.49	-0.38
951.219	1.62
951.948	0.62
952.678	1.62
953.407	-0.38
954.136	0.62
954.865	-0.38
955.594	-0.38
956.323	0.62
957.052	-2.38
957.78	1.62
958.509	-1.38
959.238	-2.38
959.966	0.62
960.695	-2.38
961.423	-0.38
962.151	-0.38
962.88	-0.38
963.608	1.62
964.336	-1.38
965.064	0.62
965.792	-1.38
966.52	0.62
967.247	0.62
967.975	-0.38
968.703	0.62
969.43	-1.38
970.158	-1.38
970.885	-0.38
971.613	-0.38
972.34	0.62
973.067	-0.38
973.794	0.62
974.521	1.62
975.248	0.62
975.975	-1.38
976.702	0.62
977.429	0.62
978.156	-0.38
978.882	-0.38
979.609	-0.38
980.335	-1.38
981.062	0.62
981.788	0.62
982.514	-1.38
983.24	-1.38
983.967	0.62
984.693	0.62
985.419	-0.38
986.144	-1.38
986.87	-0.38
987.596	1.62
988.322	0.62
989.047	-0.38
989.773	0.62
990.498	0.62
991.224	-0.38
991.949	-0.38
992.674	2.62
993.399	-2.38
994.124	-1.38
994.849	-1.38
995.574	0.62
996.299	-0.38
997.024	0.62
997.749	1.62
998.473	0.62
999.198	0.62
999.922	-0.38
1000.647	-1.38
1001.371	2.62
1002.095	-0.38
1002.82	-2.38
1003.544	-0.38
1004.268	4.62
1004.992	2.62
1005.716	3.62
1006.439	6.62
1007.163	5.62
1007.887	5.62
1008.611	1.62
1009.334	0.62
1010.058	1.62
1010.781	0.62
1011.504	-0.38
1012.228	0.62
1012.951	0.62
1013.674	-0.38
1014.397	0.62
1015.12	-0.38
