节点500_705_QEPB04081__517__20-53-14-762.txt的数据

Date: Wed Nov 12 20:53:14 CST 2025
User: PC
Spectrometer: QEPB0408
触发模式: 0
积分时间 (秒): 1.000000E-2
Scans to average: 1
启用暗噪声校正: true
启用非线性校正: false
滑动平均宽度: 0
X轴模式: Wavelengths
Number of Pixels in Spectrum: 1044
>>>>>Begin Spectral Data<<<<<
220.843	3.88
221.644	4.88
222.444	6.88
223.244	4.88
224.045	5.88
224.845	6.88
225.645	6.88
226.445	5.88
227.245	5.88
228.045	6.88
228.845	7.88
229.645	9.88
230.444	6.88
231.244	6.88
232.043	7.88
232.843	7.88
233.642	6.88
234.442	9.88
235.241	6.88
236.04	11.88
236.839	10.88
237.638	7.88
238.437	9.88
239.236	9.88
240.035	9.88
240.833	10.88
241.632	11.88
242.43	10.88
243.229	12.88
244.027	10.88
244.826	12.88
245.624	13.88
246.422	13.88
247.22	13.88
248.018	14.88
248.816	15.88
249.614	10.88
250.412	12.88
251.21	16.88
252.007	17.88
252.805	14.88
253.602	17.88
254.4	17.88
255.197	17.88
255.994	20.88
256.791	17.88
257.589	17.88
258.386	18.88
259.183	17.88
259.979	19.88
260.776	21.88
261.573	23.88
262.37	22.88
263.166	23.88
263.963	23.88
264.759	25.88
265.556	23.88
266.352	25.88
267.148	24.88
267.944	25.88
268.74	27.88
269.536	27.88
270.332	24.88
271.128	24.88
271.924	28.88
272.719	30.88
273.515	29.88
274.311	28.88
275.106	26.88
275.901	25.88
276.697	32.88
277.492	33.88
278.287	32.88
279.082	30.88
279.877	29.88
280.672	32.88
281.467	30.88
282.262	32.88
283.056	30.88
283.851	32.88
284.646	32.88
285.44	29.88
286.234	30.88
287.029	31.88
287.823	32.88
288.617	31.88
289.411	28.88
290.205	29.88
290.999	30.88
291.793	30.88
292.587	30.88
293.381	29.88
294.174	28.88
294.968	28.88
295.761	28.88
296.555	28.88
297.348	26.88
298.141	25.88
298.935	28.88
299.728	24.88
300.521	25.88
301.314	23.88
302.107	22.88
302.899	24.88
303.692	21.88
304.485	23.88
305.277	21.88
306.07	20.88
306.862	21.88
307.655	22.88
308.447	20.88
309.239	20.88
310.031	20.88
310.823	18.88
311.615	17.88
312.407	16.88
313.199	16.88
313.991	16.88
314.783	16.88
315.574	14.88
316.366	14.88
317.157	16.88
317.949	12.88
318.74	12.88
319.531	13.88
320.322	16.88
321.113	13.88
321.904	13.88
322.695	14.88
323.486	12.88
324.277	14.88
325.068	10.88
325.858	13.88
326.649	12.88
327.439	12.88
328.23	11.88
329.02	10.88
329.81	12.88
330.6	12.88
331.391	11.88
332.181	9.88
332.971	10.88
333.76	10.88
334.55	10.88
335.34	11.88
336.13	10.88
336.919	12.88
337.709	8.88
338.498	10.88
339.287	14.88
340.077	10.88
340.866	9.88
341.655	12.88
342.444	11.88
343.233	12.88
344.022	9.88
344.811	11.88
345.6	10.88
346.388	10.88
347.177	12.88
347.965	9.88
348.754	11.88
349.542	10.88
350.33	11.88
351.119	8.88
351.907	8.88
352.695	12.88
353.483	9.88
354.271	11.88
355.059	11.88
355.846	12.88
356.634	8.88
357.422	8.88
358.209	9.88
358.997	9.88
359.784	10.88
360.571	7.88
361.359	10.88
362.146	11.88
362.933	11.88
363.72	8.88
364.507	8.88
365.294	7.88
366.081	11.88
366.867	7.88
367.654	9.88
368.44	5.88
369.227	9.88
370.013	8.88
370.8	9.88
371.586	12.88
372.372	7.88
373.158	8.88
373.944	8.88
374.73	9.88
375.516	9.88
376.302	7.88
377.088	12.88
377.873	6.88
378.659	9.88
379.445	10.88
380.23	8.88
381.015	9.88
381.801	9.88
382.586	10.88
383.371	10.88
384.156	11.88
384.941	10.88
385.726	10.88
386.511	10.88
387.296	10.88
388.08	9.88
388.865	11.88
389.649	12.88
390.434	12.88
391.218	7.88
392.003	10.88
392.787	8.88
393.571	11.88
394.355	13.88
395.139	10.88
395.923	9.88
396.707	11.88
397.491	9.88
398.274	10.88
399.058	11.88
399.842	12.88
400.625	8.88
401.408	11.88
402.192	11.88
402.975	14.88
403.758	12.88
404.541	12.88
405.324	13.88
406.107	11.88
406.89	12.88
407.673	14.88
408.456	16.88
409.238	13.88
410.021	15.88
410.803	13.88
411.586	14.88
412.368	18.88
413.151	15.88
413.933	17.88
414.715	15.88
415.497	14.88
416.279	17.88
417.061	16.88
417.843	21.88
418.624	14.88
419.406	20.88
420.188	19.88
420.969	19.88
421.751	23.88
422.532	21.88
423.313	21.88
424.095	21.88
424.876	21.88
425.657	27.88
426.438	23.88
427.219	25.88
428	24.88
428.78	26.88
429.561	29.88
430.342	28.88
431.122	30.88
431.903	28.88
432.683	33.88
433.464	37.88
434.244	38.88
435.024	37.88
435.804	39.88
436.584	42.88
437.364	43.88
438.144	46.88
438.924	48.88
439.704	53.88
440.483	57.88
441.263	62.88
442.042	67.88
442.822	73.88
443.601	79.88
444.38	83.88
445.16	88.88
445.939	96.88
446.718	109.88
447.497	115.88
448.276	127.88
449.054	136.88
449.833	154.88
450.612	163.88
451.391	188.88
452.169	204.88
452.948	228.88
453.726	256.88
454.504	280.88
455.282	307.88
456.061	346.88
456.839	384.88
457.617	438.88
458.395	477.88
459.172	540.88
459.95	590.88
460.728	662.88
461.506	734.88
462.283	808.88
463.061	919.88
463.838	1007.88
464.615	1123.88
465.393	1244.88
466.17	1377.88
466.947	1526.88
467.724	1680.88
468.501	1873.88
469.278	2056.88
470.055	2260.88
470.831	2486.88
471.608	2754.88
472.385	3021.88
473.161	3322.88
473.938	3622.88
474.714	3990.88
475.49	4359.88
476.266	4742.88
477.043	5186.88
477.819	5636.88
478.595	6120.88
479.371	6691.88
480.146	7223.88
480.922	7911.88
481.698	8562.88
482.473	9293.88
483.249	10078.88
484.024	10865.88
484.8	11768.88
485.575	12714.88
486.35	13734.88
487.126	14820.88
487.901	15975.88
488.676	17185.88
489.451	18558.88
490.225	19850.88
491	21351.88
491.775	22745.88
492.55	24257.88
493.324	25850.88
494.099	27452.88
494.873	29118.88
495.647	30647.88
496.422	32339.88
497.196	33948.88
497.97	35594.88
498.744	37050.88
499.518	38670.88
500.292	39969.88
501.066	40962.88
501.839	41955.88
502.613	42883.88
503.387	43691.88
504.16	44237.88
504.934	44541.88
505.707	44729.88
506.48	44535.88
507.253	44330.88
508.027	43836.88
508.8	43228.88
509.573	42417.88
510.346	41637.88
511.118	40741.88
511.891	39747.88
512.664	38299.88
513.437	37019.88
514.209	35738.88
514.982	34439.88
515.754	33132.88
516.526	31900.88
517.298	30618.88
518.071	29501.88
518.843	28302.88
519.615	27184.88
520.387	26162.88
521.159	25078.88
521.93	24103.88
522.702	23086.88
523.474	22174.88
524.245	21222.88
525.017	20340.88
525.788	19520.88
526.56	18698.88
527.331	17922.88
528.102	17021.88
528.873	16232.88
529.644	15435.88
530.415	14747.88
531.186	14067.88
531.957	13345.88
532.728	12673.88
533.498	12044.88
534.269	11383.88
535.039	10814.88
535.81	10233.88
536.58	9703.88
537.351	9170.88
538.121	8720.88
538.891	8232.88
539.661	7757.88
540.431	7370.88
541.201	7022.88
541.971	6634.88
542.741	6256.88
543.51	5952.88
544.28	5694.88
545.05	5432.88
545.819	5163.88
546.588	4911.88
547.358	4712.88
548.127	4464.88
548.896	4229.88
549.665	4013.88
550.434	3799.88
551.203	3625.88
551.972	3454.88
552.741	3267.88
553.51	3053.88
554.278	2898.88
555.047	2738.88
555.815	2594.88
556.584	2454.88
557.352	2338.88
558.121	2192.88
558.889	2064.88
559.657	1951.88
560.425	1859.88
561.193	1753.88
561.961	1666.88
562.729	1563.88
563.496	1483.88
564.264	1392.88
565.032	1314.88
565.799	1255.88
566.567	1188.88
567.334	1121.88
568.101	1062.88
568.869	994.88
569.636	936.88
570.403	885.88
571.17	846.88
571.937	796.88
572.704	759.88
573.471	714.88
574.237	666.88
575.004	645.88
575.771	593.88
576.537	555.88
577.303	533.88
578.07	505.88
578.836	469.88
579.602	442.88
580.368	426.88
581.134	404.88
581.9	377.88
582.666	356.88
583.432	354.88
584.198	330.88
584.964	310.88
585.729	298.88
586.495	284.88
587.26	262.88
588.025	245.88
588.791	233.88
589.556	232.88
590.321	222.88
591.086	204.88
591.851	193.88
592.616	189.88
593.381	174.88
594.146	167.88
594.911	163.88
595.675	149.88
596.44	154.88
597.204	139.88
597.969	130.88
598.733	127.88
599.497	122.88
600.261	115.88
601.025	110.88
601.79	106.88
602.553	101.88
603.317	101.88
604.081	94.88
604.845	89.88
605.609	86.88
606.372	82.88
607.136	80.88
607.899	74.88
608.662	74.88
609.426	70.88
610.189	68.88
610.952	68.88
611.715	61.88
612.478	58.88
613.241	60.88
614.004	54.88
614.767	57.88
615.529	51.88
616.292	49.88
617.055	45.88
617.817	51.88
618.579	46.88
619.342	45.88
620.104	45.88
620.866	41.88
621.628	41.88
622.39	38.88
623.152	39.88
623.914	35.88
624.676	36.88
625.438	36.88
626.199	34.88
626.961	36.88
627.722	30.88
628.484	30.88
629.245	29.88
630.006	26.88
630.768	26.88
631.529	28.88
632.29	26.88
633.051	23.88
633.812	23.88
634.573	26.88
635.333	19.88
636.094	26.88
636.855	22.88
637.615	21.88
638.376	21.88
639.136	20.88
639.896	21.88
640.657	17.88
641.417	20.88
642.177	22.88
642.937	18.88
643.697	17.88
644.457	16.88
645.216	17.88
645.976	14.88
646.736	15.88
647.495	15.88
648.255	14.88
649.014	14.88
649.774	13.88
650.533	11.88
651.292	13.88
652.051	14.88
652.81	11.88
653.569	14.88
654.328	12.88
655.087	12.88
655.846	9.88
656.604	10.88
657.363	11.88
658.121	14.88
658.88	9.88
659.638	12.88
660.397	10.88
661.155	8.88
661.913	10.88
662.671	10.88
663.429	9.88
664.187	8.88
664.945	9.88
665.703	6.88
666.46	10.88
667.218	9.88
667.976	8.88
668.733	7.88
669.49	8.88
670.248	8.88
671.005	8.88
671.762	8.88
672.519	7.88
673.276	11.88
674.033	7.88
674.79	5.88
675.547	10.88
676.304	8.88
677.06	7.88
677.817	8.88
678.574	8.88
679.33	7.88
680.086	8.88
680.843	7.88
681.599	7.88
682.355	6.88
683.111	8.88
683.867	9.88
684.623	7.88
685.379	8.88
686.135	6.88
686.89	9.88
687.646	6.88
688.402	9.88
689.157	6.88
689.912	8.88
690.668	6.88
691.423	6.88
692.178	7.88
692.933	8.88
693.688	5.88
694.443	6.88
695.198	5.88
695.953	7.88
696.708	8.88
697.462	7.88
698.217	6.88
698.972	4.88
699.726	8.88
700.48	6.88
701.235	9.88
701.989	7.88
702.743	7.88
703.497	8.88
704.251	6.88
705.005	8.88
705.759	8.88
706.513	6.88
707.266	5.88
708.02	6.88
708.774	7.88
709.527	6.88
710.28	5.88
711.034	6.88
711.787	7.88
712.54	6.88
713.293	3.88
714.046	9.88
714.799	6.88
715.552	6.88
716.305	9.88
717.058	7.88
717.81	8.88
718.563	6.88
719.315	8.88
720.068	7.88
720.82	8.88
721.573	6.88
722.325	8.88
723.077	8.88
723.829	5.88
724.581	5.88
725.333	7.88
726.085	8.88
726.836	7.88
727.588	9.88
728.34	9.88
729.091	7.88
729.843	10.88
730.594	7.88
731.346	8.88
732.097	9.88
732.848	7.88
733.599	8.88
734.35	7.88
735.101	6.88
735.852	7.88
736.603	7.88
737.354	10.88
738.104	8.88
738.855	9.88
739.605	8.88
740.356	10.88
741.106	9.88
741.856	6.88
742.607	8.88
743.357	8.88
744.107	9.88
744.857	7.88
745.607	8.88
746.357	9.88
747.106	7.88
747.856	10.88
748.606	8.88
749.355	12.88
750.105	7.88
750.854	6.88
751.603	8.88
752.353	10.88
753.102	10.88
753.851	8.88
754.6	11.88
755.349	10.88
756.098	9.88
756.847	11.88
757.595	10.88
758.344	11.88
759.093	11.88
759.841	10.88
760.589	11.88
761.338	10.88
762.086	12.88
762.834	11.88
763.582	12.88
764.331	10.88
765.079	11.88
765.826	11.88
766.574	14.88
767.322	14.88
768.07	12.88
768.817	13.88
769.565	14.88
770.312	12.88
771.06	14.88
771.807	11.88
772.554	10.88
773.302	13.88
774.049	10.88
774.796	13.88
775.543	13.88
776.29	12.88
777.036	11.88
777.783	16.88
778.53	14.88
779.276	11.88
780.023	13.88
780.769	13.88
781.516	14.88
782.262	12.88
783.008	12.88
783.754	14.88
784.5	11.88
785.246	12.88
785.992	14.88
786.738	12.88
787.484	12.88
788.23	13.88
788.975	14.88
789.721	12.88
790.466	13.88
791.212	14.88
791.957	13.88
792.702	15.88
793.447	13.88
794.193	15.88
794.938	10.88
795.683	13.88
796.427	11.88
797.172	13.88
797.917	12.88
798.662	12.88
799.406	11.88
800.151	10.88
800.895	12.88
801.64	12.88
802.384	10.88
803.128	12.88
803.872	11.88
804.616	11.88
805.36	10.88
806.104	11.88
806.848	9.88
807.592	8.88
808.336	8.88
809.079	7.88
809.823	9.88
810.566	7.88
811.31	7.88
812.053	10.88
812.796	8.88
813.539	9.88
814.283	6.88
815.026	6.88
815.769	7.88
816.511	6.88
817.254	7.88
817.997	7.88
818.74	8.88
819.482	8.88
820.225	5.88
820.967	7.88
821.71	6.88
822.452	7.88
823.194	4.88
823.936	6.88
824.678	4.88
825.42	7.88
826.162	9.88
826.904	6.88
827.646	5.88
828.388	6.88
829.129	7.88
829.871	7.88
830.612	5.88
831.354	4.88
832.095	6.88
832.836	7.88
833.577	6.88
834.319	5.88
835.06	5.88
835.801	3.88
836.542	5.88
837.282	8.88
838.023	5.88
838.764	4.88
839.504	6.88
840.245	6.88
840.985	5.88
841.726	5.88
842.466	5.88
843.206	3.88
843.946	3.88
844.687	2.88
845.427	4.88
846.166	4.88
846.906	6.88
847.646	6.88
848.386	5.88
849.125	5.88
849.865	0.88
850.605	5.88
851.344	4.88
852.083	5.88
852.823	2.88
853.562	4.88
854.301	1.88
855.04	4.88
855.779	0.88
856.518	2.88
857.257	4.88
857.995	5.88
858.734	2.88
859.473	5.88
860.211	4.88
860.95	3.88
861.688	2.88
862.426	1.88
863.165	3.88
863.903	2.88
864.641	2.88
865.379	4.88
866.117	2.88
866.855	0.88
867.593	2.88
868.33	1.88
869.068	1.88
869.806	0.88
870.543	0.88
871.28	2.88
872.018	2.88
872.755	1.88
873.492	2.88
874.229	1.88
874.967	0.88
875.703	2.88
876.44	0.88
877.177	4.88
877.914	0.88
878.651	0.88
879.387	2.88
880.124	-0.12
880.86	0.88
881.597	2.88
882.333	0.88
883.069	1.88
883.806	2.88
884.542	1.88
885.278	0.88
886.014	1.88
886.749	0.88
887.485	0.88
888.221	3.88
888.957	0.88
889.692	1.88
890.428	0.88
891.163	0.88
891.899	-0.12
892.634	1.88
893.369	-0.12
894.104	0.88
894.839	2.88
895.574	0.88
896.309	2.88
897.044	0.88
897.779	0.88
898.514	-0.12
899.248	0.88
899.983	1.88
900.717	1.88
901.452	1.88
902.186	0.88
902.92	-1.12
903.654	0.88
904.389	1.88
905.123	0.88
905.857	0.88
906.59	-1.12
907.324	-1.12
908.058	0.88
908.792	1.88
909.525	-1.12
910.259	0.88
910.992	0.88
911.726	0.88
912.459	0.88
913.192	-1.12
913.925	2.88
914.658	0.88
915.391	-0.12
916.124	1.88
916.857	1.88
917.59	0.88
918.323	-0.12
919.055	0.88
919.788	-0.12
920.521	-2.12
921.253	0.88
921.985	-0.12
922.718	0.88
923.45	1.88
924.182	-0.12
924.914	-1.12
925.646	1.88
926.378	2.88
927.11	2.88
927.841	-2.12
928.573	-0.12
929.305	-0.12
930.036	1.88
930.768	1.88
931.499	0.88
932.23	0.88
932.962	-1.12
933.693	-0.12
934.424	-0.12
935.155	-0.12
935.886	0.88
936.617	1.88
937.348	-0.12
938.078	0.88
938.809	0.88
939.54	-0.12
940.27	2.88
941.001	-2.12
941.731	0.88
942.461	-1.12
943.191	-1.12
943.922	2.88
944.652	0.88
945.382	0.88
946.112	1.88
946.841	-1.12
947.571	0.88
948.301	0.88
949.031	-0.12
949.76	-1.12
950.49	0.88
951.219	-1.12
951.948	-0.12
952.678	-0.12
953.407	1.88
954.136	-0.12
954.865	-1.12
955.594	0.88
956.323	-1.12
957.052	1.88
957.78	-0.12
958.509	-1.12
959.238	0.88
959.966	-1.12
960.695	0.88
961.423	-1.12
962.151	-1.12
962.88	-1.12
963.608	0.88
964.336	0.88
965.064	-1.12
965.792	-0.12
966.52	0.88
967.247	-0.12
967.975	0.88
968.703	1.88
969.43	0.88
970.158	0.88
970.885	-2.12
971.613	0.88
972.34	-0.12
973.067	0.88
973.794	0.88
974.521	-0.12
975.248	-0.12
975.975	-2.12
976.702	1.88
977.429	-1.12
978.156	-1.12
978.882	-1.12
979.609	-1.12
980.335	-0.12
981.062	-2.12
981.788	-0.12
982.514	2.88
983.24	1.88
983.967	0.88
984.693	-0.12
985.419	1.88
986.144	-3.12
986.87	1.88
987.596	1.88
988.322	1.88
989.047	0.88
989.773	1.88
990.498	-0.12
991.224	1.88
991.949	-0.12
992.674	0.88
993.399	-0.12
994.124	-0.12
994.849	-2.12
995.574	2.88
996.299	-0.12
997.024	0.88
997.749	1.88
998.473	-3.12
999.198	-1.12
999.922	0.88
1000.647	0.88
1001.371	4.88
1002.095	-0.12
1002.82	-2.12
1003.544	-2.12
1004.268	5.88
1004.992	2.88
1005.716	2.88
1006.439	4.88
1007.163	3.88
1007.887	3.88
1008.611	0.88
1009.334	-1.12
1010.058	2.88
1010.781	0.88
1011.504	0.88
1012.228	1.88
1012.951	1.88
1013.674	-0.12
1014.397	-1.12
1015.12	-1.12
