节点500_705_QEPB04081__58__20-46-51-297.txt的数据

Date: Wed Nov 12 20:46:51 CST 2025
User: PC
Spectrometer: QEPB0408
触发模式: 0
积分时间 (秒): 1.000000E-2
Scans to average: 1
启用暗噪声校正: true
启用非线性校正: false
滑动平均宽度: 0
X轴模式: Wavelengths
Number of Pixels in Spectrum: 1044
>>>>>Begin Spectral Data<<<<<
220.843	5.62
221.644	5.62
222.444	5.62
223.244	5.62
224.045	5.62
224.845	4.62
225.645	5.62
226.445	6.62
227.245	7.62
228.045	6.62
228.845	6.62
229.645	7.62
230.444	9.62
231.244	6.62
232.043	9.62
232.843	12.62
233.642	9.62
234.442	8.62
235.241	11.62
236.04	10.62
236.839	10.62
237.638	11.62
238.437	10.62
239.236	11.62
240.035	11.62
240.833	14.62
241.632	13.62
242.43	12.62
243.229	10.62
244.027	13.62
244.826	15.62
245.624	12.62
246.422	16.62
247.22	16.62
248.018	13.62
248.816	17.62
249.614	17.62
250.412	16.62
251.21	18.62
252.007	17.62
252.805	17.62
253.602	17.62
254.4	22.62
255.197	20.62
255.994	20.62
256.791	22.62
257.589	22.62
258.386	22.62
259.183	22.62
259.979	25.62
260.776	25.62
261.573	26.62
262.37	26.62
263.166	23.62
263.963	29.62
264.759	26.62
265.556	28.62
266.352	28.62
267.148	29.62
267.944	32.62
268.74	29.62
269.536	34.62
270.332	31.62
271.128	30.62
271.924	33.62
272.719	32.62
273.515	33.62
274.311	37.62
275.106	35.62
275.901	32.62
276.697	36.62
277.492	36.62
278.287	33.62
279.082	35.62
279.877	39.62
280.672	35.62
281.467	36.62
282.262	35.62
283.056	34.62
283.851	34.62
284.646	33.62
285.44	32.62
286.234	33.62
287.029	36.62
287.823	32.62
288.617	30.62
289.411	31.62
290.205	31.62
290.999	34.62
291.793	35.62
292.587	31.62
293.381	30.62
294.174	32.62
294.968	28.62
295.761	30.62
296.555	28.62
297.348	26.62
298.141	25.62
298.935	30.62
299.728	25.62
300.521	27.62
301.314	22.62
302.107	23.62
302.899	21.62
303.692	23.62
304.485	19.62
305.277	21.62
306.07	19.62
306.862	22.62
307.655	23.62
308.447	21.62
309.239	21.62
310.031	18.62
310.823	19.62
311.615	18.62
312.407	16.62
313.199	17.62
313.991	14.62
314.783	16.62
315.574	17.62
316.366	15.62
317.157	16.62
317.949	15.62
318.74	15.62
319.531	14.62
320.322	15.62
321.113	13.62
321.904	10.62
322.695	14.62
323.486	13.62
324.277	14.62
325.068	11.62
325.858	12.62
326.649	12.62
327.439	10.62
328.23	10.62
329.02	14.62
329.81	11.62
330.6	10.62
331.391	10.62
332.181	10.62
332.971	12.62
333.76	13.62
334.55	12.62
335.34	10.62
336.13	11.62
336.919	10.62
337.709	9.62
338.498	10.62
339.287	12.62
340.077	11.62
340.866	13.62
341.655	11.62
342.444	10.62
343.233	11.62
344.022	10.62
344.811	10.62
345.6	10.62
346.388	12.62
347.177	8.62
347.965	10.62
348.754	12.62
349.542	14.62
350.33	10.62
351.119	10.62
351.907	13.62
352.695	13.62
353.483	7.62
354.271	13.62
355.059	9.62
355.846	13.62
356.634	11.62
357.422	9.62
358.209	10.62
358.997	8.62
359.784	10.62
360.571	9.62
361.359	10.62
362.146	10.62
362.933	10.62
363.72	9.62
364.507	8.62
365.294	9.62
366.081	8.62
366.867	7.62
367.654	7.62
368.44	7.62
369.227	8.62
370.013	11.62
370.8	9.62
371.586	9.62
372.372	7.62
373.158	13.62
373.944	9.62
374.73	11.62
375.516	10.62
376.302	12.62
377.088	9.62
377.873	8.62
378.659	12.62
379.445	8.62
380.23	9.62
381.015	11.62
381.801	10.62
382.586	8.62
383.371	10.62
384.156	11.62
384.941	11.62
385.726	11.62
386.511	8.62
387.296	10.62
388.08	11.62
388.865	10.62
389.649	11.62
390.434	13.62
391.218	10.62
392.003	12.62
392.787	13.62
393.571	13.62
394.355	15.62
395.139	11.62
395.923	12.62
396.707	11.62
397.491	12.62
398.274	14.62
399.058	14.62
399.842	13.62
400.625	14.62
401.408	15.62
402.192	11.62
402.975	11.62
403.758	15.62
404.541	14.62
405.324	14.62
406.107	16.62
406.89	17.62
407.673	15.62
408.456	18.62
409.238	19.62
410.021	17.62
410.803	18.62
411.586	14.62
412.368	20.62
413.151	19.62
413.933	16.62
414.715	17.62
415.497	19.62
416.279	20.62
417.061	18.62
417.843	19.62
418.624	19.62
419.406	20.62
420.188	22.62
420.969	21.62
421.751	21.62
422.532	24.62
423.313	25.62
424.095	24.62
424.876	26.62
425.657	24.62
426.438	22.62
427.219	27.62
428	25.62
428.78	26.62
429.561	28.62
430.342	30.62
431.122	30.62
431.903	32.62
432.683	32.62
433.464	36.62
434.244	38.62
435.024	38.62
435.804	40.62
436.584	43.62
437.364	46.62
438.144	46.62
438.924	49.62
439.704	50.62
440.483	53.62
441.263	60.62
442.042	60.62
442.822	69.62
443.601	73.62
444.38	78.62
445.16	81.62
445.939	91.62
446.718	98.62
447.497	107.62
448.276	121.62
449.054	123.62
449.833	138.62
450.612	146.62
451.391	168.62
452.169	175.62
452.948	202.62
453.726	220.62
454.504	250.62
455.282	281.62
456.061	307.62
456.839	339.62
457.617	386.62
458.395	429.62
459.172	474.62
459.95	531.62
460.728	604.62
461.506	668.62
462.283	750.62
463.061	833.62
463.838	933.62
464.615	1058.62
465.393	1165.62
466.17	1309.62
466.947	1447.62
467.724	1617.62
468.501	1802.62
469.278	1991.62
470.055	2221.62
470.831	2455.62
471.608	2729.62
472.385	3038.62
473.161	3337.62
473.938	3703.62
474.714	4086.62
475.49	4478.62
476.266	4955.62
477.043	5458.62
477.819	5976.62
478.595	6593.62
479.371	7216.62
480.146	7902.62
480.922	8687.62
481.698	9548.62
482.473	10434.62
483.249	11442.62
484.024	12476.62
484.8	13560.62
485.575	14770.62
486.35	16100.62
487.126	17471.62
487.901	18952.62
488.676	20504.62
489.451	22200.62
490.225	23959.62
491	25731.62
491.775	27627.62
492.55	29566.62
493.324	31468.62
494.099	33461.62
494.873	35382.62
495.647	37369.62
496.422	39392.62
497.196	41232.62
497.97	42898.62
498.744	44489.62
499.518	46028.62
500.292	47461.62
501.066	48284.62
501.839	49074.62
502.613	49647.62
503.387	50010.62
504.16	50251.62
504.934	49972.62
505.707	49602.62
506.48	48835.62
507.253	48099.62
508.027	47144.62
508.8	45773.62
509.573	44451.62
510.346	43214.62
511.118	41860.62
511.891	40375.62
512.664	38679.62
513.437	37054.62
514.209	35642.62
514.982	34209.62
515.754	32692.62
516.526	31343.62
517.298	30031.62
518.071	28846.62
518.843	27674.62
519.615	26504.62
520.387	25483.62
521.159	24354.62
521.93	23397.62
522.702	22392.62
523.474	21444.62
524.245	20459.62
525.017	19584.62
525.788	18712.62
526.56	17884.62
527.331	17051.62
528.102	16106.62
528.873	15256.62
529.644	14578.62
530.415	13867.62
531.186	13142.62
531.957	12481.62
532.728	11773.62
533.498	11117.62
534.269	10509.62
535.039	9975.62
535.81	9371.62
536.58	8897.62
537.351	8381.62
538.121	7972.62
538.891	7571.62
539.661	7116.62
540.431	6741.62
541.201	6396.62
541.971	6068.62
542.741	5741.62
543.51	5432.62
544.28	5198.62
545.05	4924.62
545.819	4714.62
546.588	4493.62
547.358	4264.62
548.127	4036.62
548.896	3835.62
549.665	3619.62
550.434	3453.62
551.203	3246.62
551.972	3087.62
552.741	2935.62
553.51	2757.62
554.278	2593.62
555.047	2455.62
555.815	2317.62
556.584	2191.62
557.352	2062.62
558.121	1934.62
558.889	1839.62
559.657	1729.62
560.425	1647.62
561.193	1544.62
561.961	1469.62
562.729	1389.62
563.496	1310.62
564.264	1244.62
565.032	1176.62
565.799	1129.62
566.567	1057.62
567.334	990.62
568.101	940.62
568.869	885.62
569.636	840.62
570.403	788.62
571.17	751.62
571.937	707.62
572.704	660.62
573.471	626.62
574.237	592.62
575.004	565.62
575.771	526.62
576.537	487.62
577.303	478.62
578.07	443.62
578.836	413.62
579.602	391.62
580.368	371.62
581.134	359.62
581.9	342.62
582.666	329.62
583.432	303.62
584.198	298.62
584.964	276.62
585.729	265.62
586.495	252.62
587.26	234.62
588.025	228.62
588.791	208.62
589.556	194.62
590.321	192.62
591.086	185.62
591.851	173.62
592.616	168.62
593.381	157.62
594.146	148.62
594.911	149.62
595.675	136.62
596.44	130.62
597.204	125.62
597.969	122.62
598.733	111.62
599.497	113.62
600.261	100.62
601.025	98.62
601.79	96.62
602.553	93.62
603.317	87.62
604.081	83.62
604.845	79.62
605.609	81.62
606.372	79.62
607.136	75.62
607.899	68.62
608.662	67.62
609.426	60.62
610.189	65.62
610.952	63.62
611.715	57.62
612.478	56.62
613.241	53.62
614.004	57.62
614.767	48.62
615.529	52.62
616.292	45.62
617.055	48.62
617.817	44.62
618.579	42.62
619.342	40.62
620.104	40.62
620.866	38.62
621.628	40.62
622.39	35.62
623.152	38.62
623.914	36.62
624.676	36.62
625.438	34.62
626.199	31.62
626.961	28.62
627.722	30.62
628.484	27.62
629.245	26.62
630.006	28.62
630.768	26.62
631.529	22.62
632.29	25.62
633.051	24.62
633.812	24.62
634.573	23.62
635.333	24.62
636.094	23.62
636.855	20.62
637.615	19.62
638.376	19.62
639.136	19.62
639.896	18.62
640.657	19.62
641.417	17.62
642.177	18.62
642.937	14.62
643.697	16.62
644.457	16.62
645.216	14.62
645.976	17.62
646.736	15.62
647.495	12.62
648.255	16.62
649.014	13.62
649.774	10.62
650.533	16.62
651.292	12.62
652.051	14.62
652.81	12.62
653.569	11.62
654.328	13.62
655.087	11.62
655.846	12.62
656.604	11.62
657.363	12.62
658.121	11.62
658.88	11.62
659.638	9.62
660.397	10.62
661.155	9.62
661.913	8.62
662.671	10.62
663.429	10.62
664.187	9.62
664.945	10.62
665.703	12.62
666.46	10.62
667.218	7.62
667.976	9.62
668.733	8.62
669.49	8.62
670.248	8.62
671.005	9.62
671.762	7.62
672.519	8.62
673.276	9.62
674.033	8.62
674.79	8.62
675.547	12.62
676.304	8.62
677.06	8.62
677.817	10.62
678.574	10.62
679.33	8.62
680.086	9.62
680.843	6.62
681.599	9.62
682.355	5.62
683.111	7.62
683.867	7.62
684.623	8.62
685.379	10.62
686.135	6.62
686.89	7.62
687.646	6.62
688.402	7.62
689.157	9.62
689.912	7.62
690.668	9.62
691.423	7.62
692.178	6.62
692.933	8.62
693.688	6.62
694.443	9.62
695.198	8.62
695.953	6.62
696.708	6.62
697.462	9.62
698.217	5.62
698.972	4.62
699.726	8.62
700.48	8.62
701.235	8.62
701.989	7.62
702.743	6.62
703.497	8.62
704.251	5.62
705.005	8.62
705.759	7.62
706.513	7.62
707.266	5.62
708.02	8.62
708.774	7.62
709.527	6.62
710.28	9.62
711.034	2.62
711.787	9.62
712.54	6.62
713.293	5.62
714.046	6.62
714.799	7.62
715.552	7.62
716.305	8.62
717.058	6.62
717.81	7.62
718.563	5.62
719.315	8.62
720.068	7.62
720.82	10.62
721.573	7.62
722.325	7.62
723.077	6.62
723.829	7.62
724.581	7.62
725.333	8.62
726.085	10.62
726.836	8.62
727.588	7.62
728.34	10.62
729.091	7.62
729.843	8.62
730.594	6.62
731.346	11.62
732.097	7.62
732.848	5.62
733.599	7.62
734.35	9.62
735.101	9.62
735.852	10.62
736.603	9.62
737.354	9.62
738.104	9.62
738.855	11.62
739.605	8.62
740.356	11.62
741.106	10.62
741.856	11.62
742.607	12.62
743.357	10.62
744.107	9.62
744.857	13.62
745.607	10.62
746.357	10.62
747.106	12.62
747.856	10.62
748.606	11.62
749.355	11.62
750.105	12.62
750.854	11.62
751.603	11.62
752.353	8.62
753.102	10.62
753.851	12.62
754.6	11.62
755.349	12.62
756.098	10.62
756.847	11.62
757.595	11.62
758.344	15.62
759.093	13.62
759.841	14.62
760.589	13.62
761.338	16.62
762.086	13.62
762.834	14.62
763.582	13.62
764.331	12.62
765.079	13.62
765.826	13.62
766.574	12.62
767.322	16.62
768.07	14.62
768.817	15.62
769.565	16.62
770.312	14.62
771.06	13.62
771.807	14.62
772.554	14.62
773.302	15.62
774.049	14.62
774.796	15.62
775.543	15.62
776.29	16.62
777.036	16.62
777.783	16.62
778.53	16.62
779.276	16.62
780.023	17.62
780.769	15.62
781.516	17.62
782.262	16.62
783.008	17.62
783.754	13.62
784.5	14.62
785.246	16.62
785.992	16.62
786.738	14.62
787.484	15.62
788.23	13.62
788.975	16.62
789.721	16.62
790.466	15.62
791.212	12.62
791.957	13.62
792.702	16.62
793.447	12.62
794.193	12.62
794.938	11.62
795.683	16.62
796.427	11.62
797.172	14.62
797.917	12.62
798.662	12.62
799.406	11.62
800.151	12.62
800.895	11.62
801.64	13.62
802.384	12.62
803.128	12.62
803.872	9.62
804.616	10.62
805.36	10.62
806.104	9.62
806.848	10.62
807.592	9.62
808.336	7.62
809.079	10.62
809.823	11.62
810.566	8.62
811.31	10.62
812.053	9.62
812.796	8.62
813.539	9.62
814.283	6.62
815.026	9.62
815.769	8.62
816.511	7.62
817.254	7.62
817.997	7.62
818.74	8.62
819.482	5.62
820.225	6.62
820.967	7.62
821.71	6.62
822.452	4.62
823.194	7.62
823.936	10.62
824.678	6.62
825.42	5.62
826.162	6.62
826.904	8.62
827.646	7.62
828.388	7.62
829.129	8.62
829.871	4.62
830.612	4.62
831.354	8.62
832.095	6.62
832.836	5.62
833.577	5.62
834.319	5.62
835.06	4.62
835.801	6.62
836.542	5.62
837.282	4.62
838.023	7.62
838.764	6.62
839.504	5.62
840.245	6.62
840.985	8.62
841.726	5.62
842.466	3.62
843.206	4.62
843.946	3.62
844.687	4.62
845.427	1.62
846.166	2.62
846.906	4.62
847.646	5.62
848.386	3.62
849.125	4.62
849.865	5.62
850.605	4.62
851.344	3.62
852.083	4.62
852.823	5.62
853.562	3.62
854.301	5.62
855.04	5.62
855.779	2.62
856.518	5.62
857.257	3.62
857.995	3.62
858.734	3.62
859.473	4.62
860.211	2.62
860.95	1.62
861.688	3.62
862.426	1.62
863.165	3.62
863.903	0.62
864.641	2.62
865.379	2.62
866.117	2.62
866.855	2.62
867.593	3.62
868.33	3.62
869.068	2.62
869.806	1.62
870.543	2.62
871.28	0.62
872.018	1.62
872.755	2.62
873.492	2.62
874.229	-0.38
874.967	2.62
875.703	2.62
876.44	-0.38
877.177	1.62
877.914	1.62
878.651	0.62
879.387	0.62
880.124	2.62
880.86	1.62
881.597	0.62
882.333	1.62
883.069	0.62
883.806	2.62
884.542	0.62
885.278	1.62
886.014	1.62
886.749	0.62
887.485	2.62
888.221	-1.38
888.957	0.62
889.692	0.62
890.428	2.62
891.163	1.62
891.899	0.62
892.634	0.62
893.369	1.62
894.104	0.62
894.839	1.62
895.574	-1.38
896.309	2.62
897.044	-0.38
897.779	-0.38
898.514	2.62
899.248	-1.38
899.983	-0.38
900.717	0.62
901.452	2.62
902.186	2.62
902.92	2.62
903.654	1.62
904.389	0.62
905.123	0.62
905.857	2.62
906.59	2.62
907.324	2.62
908.058	1.62
908.792	0.62
909.525	1.62
910.259	0.62
910.992	0.62
911.726	0.62
912.459	2.62
913.192	-2.38
913.925	2.62
914.658	-1.38
915.391	1.62
916.124	-0.38
916.857	-0.38
917.59	-1.38
918.323	0.62
919.055	-1.38
919.788	-1.38
920.521	3.62
921.253	-1.38
921.985	-2.38
922.718	-0.38
923.45	0.62
924.182	0.62
924.914	-1.38
925.646	2.62
926.378	-1.38
927.11	-0.38
927.841	-0.38
928.573	-0.38
929.305	0.62
930.036	-0.38
930.768	0.62
931.499	0.62
932.23	-0.38
932.962	0.62
933.693	-3.38
934.424	-0.38
935.155	0.62
935.886	-0.38
936.617	1.62
937.348	0.62
938.078	1.62
938.809	-0.38
939.54	0.62
940.27	0.62
941.001	-1.38
941.731	0.62
942.461	0.62
943.191	0.62
943.922	0.62
944.652	-0.38
945.382	0.62
946.112	1.62
946.841	0.62
947.571	-1.38
948.301	1.62
949.031	-0.38
949.76	0.62
950.49	-0.38
951.219	-3.38
951.948	-1.38
952.678	-1.38
953.407	-0.38
954.136	0.62
954.865	-0.38
955.594	1.62
956.323	-1.38
957.052	0.62
957.78	1.62
958.509	-1.38
959.238	2.62
959.966	-2.38
960.695	0.62
961.423	-1.38
962.151	-0.38
962.88	0.62
963.608	1.62
964.336	0.62
965.064	-0.38
965.792	2.62
966.52	-0.38
967.247	1.62
967.975	1.62
968.703	-0.38
969.43	0.62
970.158	2.62
970.885	1.62
971.613	-1.38
972.34	0.62
973.067	0.62
973.794	2.62
974.521	-1.38
975.248	-0.38
975.975	-2.38
976.702	0.62
977.429	0.62
978.156	-0.38
978.882	0.62
979.609	-1.38
980.335	0.62
981.062	3.62
981.788	-0.38
982.514	0.62
983.24	0.62
983.967	-1.38
984.693	0.62
985.419	-1.38
986.144	0.62
986.87	-1.38
987.596	-1.38
988.322	2.62
989.047	-1.38
989.773	-1.38
990.498	-1.38
991.224	1.62
991.949	0.62
992.674	0.62
993.399	1.62
994.124	2.62
994.849	-1.38
995.574	-0.38
996.299	-0.38
997.024	1.62
997.749	0.62
998.473	1.62
999.198	-1.38
999.922	-1.38
1000.647	0.62
1001.371	3.62
1002.095	0.62
1002.82	-1.38
1003.544	-1.38
1004.268	7.62
1004.992	5.62
1005.716	5.62
1006.439	4.62
1007.163	4.62
1007.887	6.62
1008.611	-1.38
1009.334	1.62
1010.058	-1.38
1010.781	-0.38
1011.504	0.62
1012.228	0.62
1012.951	0.62
1013.674	-1.38
1014.397	-2.38
1015.12	1.62
