节点500_705_QEPB04081__244__20-49-23-469.txt的数据

Date: Wed Nov 12 20:49:23 CST 2025
User: PC
Spectrometer: QEPB0408
触发模式: 0
积分时间 (秒): 1.000000E-2
Scans to average: 1
启用暗噪声校正: true
启用非线性校正: false
滑动平均宽度: 0
X轴模式: Wavelengths
Number of Pixels in Spectrum: 1044
>>>>>Begin Spectral Data<<<<<
220.843	4.12
221.644	4.12
222.444	6.12
223.244	4.12
224.045	8.12
224.845	9.12
225.645	6.12
226.445	7.12
227.245	6.12
228.045	8.12
228.845	6.12
229.645	7.12
230.444	8.12
231.244	10.12
232.043	11.12
232.843	9.12
233.642	11.12
234.442	10.12
235.241	9.12
236.04	8.12
236.839	11.12
237.638	10.12
238.437	9.12
239.236	12.12
240.035	11.12
240.833	13.12
241.632	13.12
242.43	12.12
243.229	14.12
244.027	12.12
244.826	12.12
245.624	13.12
246.422	17.12
247.22	15.12
248.018	16.12
248.816	18.12
249.614	14.12
250.412	17.12
251.21	19.12
252.007	16.12
252.805	15.12
253.602	16.12
254.4	18.12
255.197	23.12
255.994	18.12
256.791	19.12
257.589	22.12
258.386	20.12
259.183	21.12
259.979	24.12
260.776	23.12
261.573	23.12
262.37	25.12
263.166	25.12
263.963	25.12
264.759	26.12
265.556	29.12
266.352	29.12
267.148	28.12
267.944	30.12
268.74	30.12
269.536	29.12
270.332	30.12
271.128	35.12
271.924	33.12
272.719	34.12
273.515	34.12
274.311	37.12
275.106	34.12
275.901	34.12
276.697	36.12
277.492	36.12
278.287	39.12
279.082	38.12
279.877	31.12
280.672	35.12
281.467	38.12
282.262	35.12
283.056	35.12
283.851	34.12
284.646	33.12
285.44	36.12
286.234	36.12
287.029	35.12
287.823	34.12
288.617	33.12
289.411	31.12
290.205	32.12
290.999	35.12
291.793	33.12
292.587	32.12
293.381	31.12
294.174	31.12
294.968	34.12
295.761	29.12
296.555	29.12
297.348	26.12
298.141	26.12
298.935	31.12
299.728	26.12
300.521	27.12
301.314	24.12
302.107	23.12
302.899	21.12
303.692	21.12
304.485	26.12
305.277	22.12
306.07	23.12
306.862	24.12
307.655	25.12
308.447	20.12
309.239	20.12
310.031	19.12
310.823	18.12
311.615	18.12
312.407	17.12
313.199	17.12
313.991	15.12
314.783	16.12
315.574	15.12
316.366	14.12
317.157	15.12
317.949	15.12
318.74	17.12
319.531	15.12
320.322	11.12
321.113	15.12
321.904	14.12
322.695	12.12
323.486	14.12
324.277	15.12
325.068	13.12
325.858	15.12
326.649	14.12
327.439	13.12
328.23	12.12
329.02	15.12
329.81	9.12
330.6	14.12
331.391	13.12
332.181	12.12
332.971	11.12
333.76	13.12
334.55	11.12
335.34	13.12
336.13	11.12
336.919	13.12
337.709	13.12
338.498	12.12
339.287	9.12
340.077	12.12
340.866	11.12
341.655	9.12
342.444	13.12
343.233	13.12
344.022	14.12
344.811	9.12
345.6	14.12
346.388	13.12
347.177	11.12
347.965	18.12
348.754	11.12
349.542	14.12
350.33	12.12
351.119	11.12
351.907	13.12
352.695	9.12
353.483	13.12
354.271	12.12
355.059	14.12
355.846	12.12
356.634	10.12
357.422	11.12
358.209	9.12
358.997	11.12
359.784	12.12
360.571	9.12
361.359	10.12
362.146	11.12
362.933	9.12
363.72	9.12
364.507	11.12
365.294	9.12
366.081	9.12
366.867	9.12
367.654	8.12
368.44	12.12
369.227	10.12
370.013	9.12
370.8	11.12
371.586	11.12
372.372	9.12
373.158	11.12
373.944	11.12
374.73	9.12
375.516	11.12
376.302	11.12
377.088	11.12
377.873	9.12
378.659	11.12
379.445	10.12
380.23	9.12
381.015	8.12
381.801	11.12
382.586	12.12
383.371	10.12
384.156	11.12
384.941	10.12
385.726	12.12
386.511	8.12
387.296	13.12
388.08	10.12
388.865	11.12
389.649	11.12
390.434	12.12
391.218	13.12
392.003	11.12
392.787	11.12
393.571	15.12
394.355	10.12
395.139	15.12
395.923	12.12
396.707	15.12
397.491	12.12
398.274	12.12
399.058	13.12
399.842	14.12
400.625	16.12
401.408	16.12
402.192	16.12
402.975	15.12
403.758	16.12
404.541	14.12
405.324	15.12
406.107	17.12
406.89	18.12
407.673	15.12
408.456	15.12
409.238	17.12
410.021	16.12
410.803	18.12
411.586	16.12
412.368	19.12
413.151	18.12
413.933	17.12
414.715	18.12
415.497	19.12
416.279	19.12
417.061	19.12
417.843	20.12
418.624	20.12
419.406	20.12
420.188	22.12
420.969	20.12
421.751	20.12
422.532	23.12
423.313	25.12
424.095	23.12
424.876	23.12
425.657	24.12
426.438	28.12
427.219	26.12
428	29.12
428.78	27.12
429.561	30.12
430.342	31.12
431.122	30.12
431.903	33.12
432.683	35.12
433.464	36.12
434.244	40.12
435.024	41.12
435.804	40.12
436.584	42.12
437.364	43.12
438.144	47.12
438.924	47.12
439.704	52.12
440.483	56.12
441.263	63.12
442.042	62.12
442.822	69.12
443.601	73.12
444.38	80.12
445.16	89.12
445.939	89.12
446.718	102.12
447.497	112.12
448.276	116.12
449.054	130.12
449.833	142.12
450.612	158.12
451.391	179.12
452.169	191.12
452.948	215.12
453.726	230.12
454.504	259.12
455.282	291.12
456.061	320.12
456.839	359.12
457.617	408.12
458.395	442.12
459.172	497.12
459.95	561.12
460.728	615.12
461.506	693.12
462.283	776.12
463.061	854.12
463.838	969.12
464.615	1087.12
465.393	1195.12
466.17	1329.12
466.947	1477.12
467.724	1629.12
468.501	1835.12
469.278	2012.12
470.055	2254.12
470.831	2474.12
471.608	2734.12
472.385	3017.12
473.161	3362.12
473.938	3673.12
474.714	4077.12
475.49	4473.12
476.266	4902.12
477.043	5404.12
477.819	5896.12
478.595	6472.12
479.371	7087.12
480.146	7727.12
480.922	8455.12
481.698	9227.12
482.473	10082.12
483.249	10935.12
484.024	11865.12
484.8	12956.12
485.575	14031.12
486.35	15291.12
487.126	16545.12
487.901	17944.12
488.676	19338.12
489.451	20914.12
490.225	22521.12
491	24235.12
491.775	25821.12
492.55	27685.12
493.324	29495.12
494.099	31285.12
494.873	33191.12
495.647	35034.12
496.422	36867.12
497.196	38721.12
497.97	40373.12
498.744	41951.12
499.518	43532.12
500.292	44854.12
501.066	45796.12
501.839	46734.12
502.613	47391.12
503.387	48042.12
504.16	48354.12
504.934	48260.12
505.707	48090.12
506.48	47598.12
507.253	46960.12
508.027	46166.12
508.8	45055.12
509.573	43886.12
510.346	42832.12
511.118	41563.12
511.891	40383.12
512.664	38808.12
513.437	37209.12
514.209	35762.12
514.982	34370.12
515.754	32937.12
516.526	31507.12
517.298	30269.12
518.071	29108.12
518.843	27890.12
519.615	26776.12
520.387	25727.12
521.159	24711.12
521.93	23627.12
522.702	22653.12
523.474	21654.12
524.245	20755.12
525.017	19818.12
525.788	18950.12
526.56	18154.12
527.331	17414.12
528.102	16419.12
528.873	15575.12
529.644	14831.12
530.415	14133.12
531.186	13471.12
531.957	12737.12
532.728	12087.12
533.498	11406.12
534.269	10828.12
535.039	10214.12
535.81	9707.12
536.58	9134.12
537.351	8683.12
538.121	8197.12
538.891	7772.12
539.661	7349.12
540.431	6929.12
541.201	6575.12
541.971	6249.12
542.741	5939.12
543.51	5640.12
544.28	5344.12
545.05	5113.12
545.819	4857.12
546.588	4625.12
547.358	4390.12
548.127	4208.12
548.896	3974.12
549.665	3755.12
550.434	3561.12
551.203	3354.12
551.972	3189.12
552.741	3019.12
553.51	2860.12
554.278	2703.12
555.047	2535.12
555.815	2410.12
556.584	2273.12
557.352	2143.12
558.121	2010.12
558.889	1919.12
559.657	1818.12
560.425	1714.12
561.193	1618.12
561.961	1527.12
562.729	1447.12
563.496	1360.12
564.264	1299.12
565.032	1222.12
565.799	1163.12
566.567	1095.12
567.334	1037.12
568.101	982.12
568.869	926.12
569.636	887.12
570.403	837.12
571.17	782.12
571.937	736.12
572.704	690.12
573.471	662.12
574.237	605.12
575.004	590.12
575.771	550.12
576.537	517.12
577.303	495.12
578.07	468.12
578.836	437.12
579.602	412.12
580.368	396.12
581.134	377.12
581.9	363.12
582.666	341.12
583.432	323.12
584.198	302.12
584.964	288.12
585.729	273.12
586.495	261.12
587.26	246.12
588.025	236.12
588.791	220.12
589.556	204.12
590.321	199.12
591.086	189.12
591.851	173.12
592.616	171.12
593.381	162.12
594.146	162.12
594.911	152.12
595.675	143.12
596.44	135.12
597.204	134.12
597.969	132.12
598.733	118.12
599.497	111.12
600.261	106.12
601.025	104.12
601.79	102.12
602.553	101.12
603.317	88.12
604.081	89.12
604.845	85.12
605.609	78.12
606.372	79.12
607.136	79.12
607.899	75.12
608.662	70.12
609.426	68.12
610.189	66.12
610.952	62.12
611.715	62.12
612.478	54.12
613.241	58.12
614.004	53.12
614.767	49.12
615.529	50.12
616.292	52.12
617.055	47.12
617.817	47.12
618.579	46.12
619.342	40.12
620.104	37.12
620.866	40.12
621.628	41.12
622.39	38.12
623.152	37.12
623.914	36.12
624.676	35.12
625.438	35.12
626.199	32.12
626.961	35.12
627.722	30.12
628.484	30.12
629.245	30.12
630.006	29.12
630.768	27.12
631.529	27.12
632.29	26.12
633.051	23.12
633.812	25.12
634.573	24.12
635.333	24.12
636.094	20.12
636.855	22.12
637.615	23.12
638.376	18.12
639.136	20.12
639.896	22.12
640.657	22.12
641.417	16.12
642.177	16.12
642.937	17.12
643.697	18.12
644.457	19.12
645.216	17.12
645.976	17.12
646.736	16.12
647.495	16.12
648.255	14.12
649.014	14.12
649.774	15.12
650.533	11.12
651.292	15.12
652.051	14.12
652.81	15.12
653.569	15.12
654.328	13.12
655.087	15.12
655.846	15.12
656.604	11.12
657.363	13.12
658.121	12.12
658.88	13.12
659.638	11.12
660.397	10.12
661.155	11.12
661.913	9.12
662.671	13.12
663.429	12.12
664.187	11.12
664.945	11.12
665.703	9.12
666.46	11.12
667.218	11.12
667.976	12.12
668.733	11.12
669.49	9.12
670.248	7.12
671.005	9.12
671.762	12.12
672.519	12.12
673.276	7.12
674.033	9.12
674.79	11.12
675.547	10.12
676.304	8.12
677.06	10.12
677.817	8.12
678.574	7.12
679.33	10.12
680.086	7.12
680.843	9.12
681.599	7.12
682.355	7.12
683.111	7.12
683.867	9.12
684.623	8.12
685.379	8.12
686.135	8.12
686.89	8.12
687.646	7.12
688.402	8.12
689.157	8.12
689.912	9.12
690.668	7.12
691.423	8.12
692.178	8.12
692.933	7.12
693.688	6.12
694.443	9.12
695.198	10.12
695.953	9.12
696.708	7.12
697.462	11.12
698.217	7.12
698.972	10.12
699.726	8.12
700.48	8.12
701.235	8.12
701.989	9.12
702.743	7.12
703.497	8.12
704.251	8.12
705.005	8.12
705.759	9.12
706.513	8.12
707.266	7.12
708.02	8.12
708.774	8.12
709.527	8.12
710.28	8.12
711.034	7.12
711.787	9.12
712.54	7.12
713.293	8.12
714.046	6.12
714.799	7.12
715.552	8.12
716.305	6.12
717.058	9.12
717.81	6.12
718.563	7.12
719.315	7.12
720.068	8.12
720.82	9.12
721.573	9.12
722.325	9.12
723.077	8.12
723.829	12.12
724.581	9.12
725.333	8.12
726.085	10.12
726.836	6.12
727.588	7.12
728.34	9.12
729.091	9.12
729.843	9.12
730.594	9.12
731.346	10.12
732.097	8.12
732.848	10.12
733.599	10.12
734.35	9.12
735.101	12.12
735.852	7.12
736.603	11.12
737.354	10.12
738.104	10.12
738.855	9.12
739.605	9.12
740.356	9.12
741.106	10.12
741.856	10.12
742.607	10.12
743.357	10.12
744.107	9.12
744.857	10.12
745.607	13.12
746.357	11.12
747.106	10.12
747.856	10.12
748.606	11.12
749.355	10.12
750.105	11.12
750.854	11.12
751.603	11.12
752.353	14.12
753.102	11.12
753.851	12.12
754.6	13.12
755.349	12.12
756.098	13.12
756.847	11.12
757.595	11.12
758.344	14.12
759.093	12.12
759.841	14.12
760.589	11.12
761.338	12.12
762.086	14.12
762.834	14.12
763.582	13.12
764.331	13.12
765.079	14.12
765.826	13.12
766.574	14.12
767.322	16.12
768.07	12.12
768.817	18.12
769.565	17.12
770.312	17.12
771.06	12.12
771.807	15.12
772.554	15.12
773.302	16.12
774.049	15.12
774.796	15.12
775.543	15.12
776.29	15.12
777.036	15.12
777.783	19.12
778.53	17.12
779.276	16.12
780.023	18.12
780.769	15.12
781.516	18.12
782.262	15.12
783.008	18.12
783.754	18.12
784.5	15.12
785.246	14.12
785.992	15.12
786.738	16.12
787.484	14.12
788.23	16.12
788.975	18.12
789.721	17.12
790.466	16.12
791.212	14.12
791.957	16.12
792.702	14.12
793.447	15.12
794.193	16.12
794.938	14.12
795.683	14.12
796.427	17.12
797.172	14.12
797.917	11.12
798.662	13.12
799.406	13.12
800.151	13.12
800.895	10.12
801.64	10.12
802.384	13.12
803.128	13.12
803.872	13.12
804.616	13.12
805.36	11.12
806.104	9.12
806.848	9.12
807.592	12.12
808.336	9.12
809.079	10.12
809.823	12.12
810.566	8.12
811.31	9.12
812.053	10.12
812.796	9.12
813.539	8.12
814.283	6.12
815.026	9.12
815.769	8.12
816.511	10.12
817.254	9.12
817.997	9.12
818.74	9.12
819.482	7.12
820.225	8.12
820.967	6.12
821.71	10.12
822.452	7.12
823.194	8.12
823.936	12.12
824.678	7.12
825.42	8.12
826.162	8.12
826.904	8.12
827.646	8.12
828.388	6.12
829.129	6.12
829.871	8.12
830.612	6.12
831.354	7.12
832.095	7.12
832.836	8.12
833.577	6.12
834.319	7.12
835.06	7.12
835.801	7.12
836.542	8.12
837.282	5.12
838.023	5.12
838.764	7.12
839.504	5.12
840.245	5.12
840.985	5.12
841.726	6.12
842.466	4.12
843.206	8.12
843.946	5.12
844.687	7.12
845.427	7.12
846.166	5.12
846.906	5.12
847.646	6.12
848.386	5.12
849.125	4.12
849.865	5.12
850.605	5.12
851.344	5.12
852.083	6.12
852.823	5.12
853.562	6.12
854.301	5.12
855.04	5.12
855.779	4.12
856.518	5.12
857.257	5.12
857.995	4.12
858.734	3.12
859.473	3.12
860.211	3.12
860.95	5.12
861.688	6.12
862.426	2.12
863.165	6.12
863.903	3.12
864.641	1.12
865.379	1.12
866.117	3.12
866.855	3.12
867.593	4.12
868.33	2.12
869.068	2.12
869.806	2.12
870.543	2.12
871.28	3.12
872.018	3.12
872.755	6.12
873.492	4.12
874.229	3.12
874.967	3.12
875.703	3.12
876.44	1.12
877.177	3.12
877.914	1.12
878.651	3.12
879.387	2.12
880.124	4.12
880.86	1.12
881.597	0.12
882.333	1.12
883.069	2.12
883.806	0.12
884.542	1.12
885.278	1.12
886.014	1.12
886.749	1.12
887.485	3.12
888.221	-0.88
888.957	-0.88
889.692	1.12
890.428	-0.88
891.163	0.12
891.899	2.12
892.634	3.12
893.369	2.12
894.104	1.12
894.839	1.12
895.574	2.12
896.309	1.12
897.044	-1.88
897.779	2.12
898.514	1.12
899.248	2.12
899.983	1.12
900.717	0.12
901.452	3.12
902.186	3.12
902.92	1.12
903.654	0.12
904.389	2.12
905.123	3.12
905.857	2.12
906.59	2.12
907.324	3.12
908.058	-0.88
908.792	1.12
909.525	3.12
910.259	2.12
910.992	1.12
911.726	3.12
912.459	-0.88
913.192	1.12
913.925	-0.88
914.658	2.12
915.391	1.12
916.124	2.12
916.857	2.12
917.59	3.12
918.323	-0.88
919.055	2.12
919.788	0.12
920.521	3.12
921.253	2.12
921.985	0.12
922.718	2.12
923.45	0.12
924.182	2.12
924.914	2.12
925.646	3.12
926.378	1.12
927.11	1.12
927.841	-0.88
928.573	0.12
929.305	-0.88
930.036	3.12
930.768	2.12
931.499	-0.88
932.23	2.12
932.962	2.12
933.693	-0.88
934.424	2.12
935.155	-0.88
935.886	1.12
936.617	1.12
937.348	-0.88
938.078	1.12
938.809	1.12
939.54	1.12
940.27	-0.88
941.001	0.12
941.731	1.12
942.461	0.12
943.191	1.12
943.922	0.12
944.652	2.12
945.382	1.12
946.112	-0.88
946.841	2.12
947.571	1.12
948.301	-3.88
949.031	-0.88
949.76	-0.88
950.49	0.12
951.219	2.12
951.948	3.12
952.678	1.12
953.407	1.12
954.136	1.12
954.865	-0.88
955.594	2.12
956.323	2.12
957.052	1.12
957.78	2.12
958.509	-0.88
959.238	3.12
959.966	-0.88
960.695	2.12
961.423	-0.88
962.151	-1.88
962.88	2.12
963.608	1.12
964.336	3.12
965.064	1.12
965.792	-0.88
966.52	-0.88
967.247	0.12
967.975	2.12
968.703	2.12
969.43	1.12
970.158	-0.88
970.885	1.12
971.613	0.12
972.34	1.12
973.067	0.12
973.794	-0.88
974.521	4.12
975.248	1.12
975.975	0.12
976.702	1.12
977.429	-0.88
978.156	1.12
978.882	2.12
979.609	3.12
980.335	1.12
981.062	0.12
981.788	2.12
982.514	-0.88
983.24	1.12
983.967	1.12
984.693	-0.88
985.419	0.12
986.144	0.12
986.87	1.12
987.596	0.12
988.322	3.12
989.047	0.12
989.773	0.12
990.498	2.12
991.224	-0.88
991.949	1.12
992.674	1.12
993.399	0.12
994.124	2.12
994.849	-1.88
995.574	1.12
996.299	-0.88
997.024	4.12
997.749	2.12
998.473	1.12
999.198	2.12
999.922	0.12
1000.647	-0.88
1001.371	3.12
1002.095	-0.88
1002.82	1.12
1003.544	-1.88
1004.268	5.12
1004.992	6.12
1005.716	6.12
1006.439	8.12
1007.163	6.12
1007.887	7.12
1008.611	1.12
1009.334	2.12
1010.058	3.12
1010.781	1.12
1011.504	2.12
1012.228	1.12
1012.951	0.12
1013.674	-1.88
1014.397	-0.88
1015.12	1.12
