节点500_705_QEPB04081__300__20-50-15-406.txt的数据

Date: Wed Nov 12 20:50:15 CST 2025
User: PC
Spectrometer: QEPB0408
触发模式: 0
积分时间 (秒): 1.000000E-2
Scans to average: 1
启用暗噪声校正: true
启用非线性校正: false
滑动平均宽度: 0
X轴模式: Wavelengths
Number of Pixels in Spectrum: 1044
>>>>>Begin Spectral Data<<<<<
220.843	5.12
221.644	6.12
222.444	5.12
223.244	9.12
224.045	6.12
224.845	5.12
225.645	7.12
226.445	7.12
227.245	7.12
228.045	8.12
228.845	8.12
229.645	5.12
230.444	8.12
231.244	8.12
232.043	8.12
232.843	6.12
233.642	12.12
234.442	10.12
235.241	10.12
236.04	9.12
236.839	10.12
237.638	9.12
238.437	11.12
239.236	11.12
240.035	13.12
240.833	13.12
241.632	14.12
242.43	13.12
243.229	12.12
244.027	12.12
244.826	15.12
245.624	13.12
246.422	16.12
247.22	18.12
248.018	13.12
248.816	14.12
249.614	14.12
250.412	14.12
251.21	17.12
252.007	15.12
252.805	17.12
253.602	19.12
254.4	19.12
255.197	20.12
255.994	20.12
256.791	19.12
257.589	22.12
258.386	18.12
259.183	22.12
259.979	21.12
260.776	23.12
261.573	24.12
262.37	23.12
263.166	25.12
263.963	27.12
264.759	27.12
265.556	25.12
266.352	25.12
267.148	28.12
267.944	28.12
268.74	32.12
269.536	28.12
270.332	30.12
271.128	31.12
271.924	34.12
272.719	33.12
273.515	34.12
274.311	33.12
275.106	34.12
275.901	36.12
276.697	34.12
277.492	34.12
278.287	31.12
279.082	34.12
279.877	34.12
280.672	33.12
281.467	35.12
282.262	35.12
283.056	36.12
283.851	36.12
284.646	32.12
285.44	34.12
286.234	36.12
287.029	34.12
287.823	32.12
288.617	32.12
289.411	30.12
290.205	30.12
290.999	30.12
291.793	31.12
292.587	28.12
293.381	31.12
294.174	33.12
294.968	27.12
295.761	28.12
296.555	26.12
297.348	27.12
298.141	29.12
298.935	32.12
299.728	25.12
300.521	24.12
301.314	27.12
302.107	24.12
302.899	22.12
303.692	23.12
304.485	22.12
305.277	26.12
306.07	20.12
306.862	23.12
307.655	21.12
308.447	21.12
309.239	20.12
310.031	19.12
310.823	21.12
311.615	18.12
312.407	19.12
313.199	19.12
313.991	17.12
314.783	16.12
315.574	15.12
316.366	18.12
317.157	16.12
317.949	16.12
318.74	13.12
319.531	16.12
320.322	15.12
321.113	15.12
321.904	13.12
322.695	14.12
323.486	13.12
324.277	13.12
325.068	14.12
325.858	13.12
326.649	12.12
327.439	13.12
328.23	11.12
329.02	12.12
329.81	14.12
330.6	14.12
331.391	12.12
332.181	11.12
332.971	12.12
333.76	11.12
334.55	14.12
335.34	14.12
336.13	13.12
336.919	11.12
337.709	13.12
338.498	9.12
339.287	12.12
340.077	14.12
340.866	13.12
341.655	13.12
342.444	11.12
343.233	13.12
344.022	10.12
344.811	12.12
345.6	11.12
346.388	10.12
347.177	10.12
347.965	13.12
348.754	11.12
349.542	11.12
350.33	9.12
351.119	11.12
351.907	12.12
352.695	13.12
353.483	13.12
354.271	10.12
355.059	11.12
355.846	11.12
356.634	10.12
357.422	12.12
358.209	11.12
358.997	8.12
359.784	13.12
360.571	12.12
361.359	10.12
362.146	10.12
362.933	11.12
363.72	9.12
364.507	9.12
365.294	10.12
366.081	9.12
366.867	11.12
367.654	8.12
368.44	8.12
369.227	9.12
370.013	10.12
370.8	9.12
371.586	10.12
372.372	10.12
373.158	9.12
373.944	10.12
374.73	11.12
375.516	10.12
376.302	10.12
377.088	10.12
377.873	9.12
378.659	11.12
379.445	9.12
380.23	9.12
381.015	10.12
381.801	11.12
382.586	11.12
383.371	13.12
384.156	12.12
384.941	13.12
385.726	11.12
386.511	8.12
387.296	11.12
388.08	11.12
388.865	8.12
389.649	13.12
390.434	13.12
391.218	12.12
392.003	11.12
392.787	14.12
393.571	13.12
394.355	12.12
395.139	14.12
395.923	14.12
396.707	10.12
397.491	12.12
398.274	12.12
399.058	11.12
399.842	14.12
400.625	13.12
401.408	14.12
402.192	13.12
402.975	13.12
403.758	14.12
404.541	15.12
405.324	14.12
406.107	13.12
406.89	15.12
407.673	15.12
408.456	17.12
409.238	15.12
410.021	15.12
410.803	18.12
411.586	15.12
412.368	18.12
413.151	18.12
413.933	19.12
414.715	18.12
415.497	19.12
416.279	18.12
417.061	18.12
417.843	20.12
418.624	17.12
419.406	20.12
420.188	22.12
420.969	20.12
421.751	25.12
422.532	22.12
423.313	20.12
424.095	25.12
424.876	25.12
425.657	25.12
426.438	24.12
427.219	29.12
428	27.12
428.78	27.12
429.561	31.12
430.342	29.12
431.122	31.12
431.903	34.12
432.683	37.12
433.464	35.12
434.244	36.12
435.024	38.12
435.804	39.12
436.584	43.12
437.364	47.12
438.144	45.12
438.924	47.12
439.704	51.12
440.483	55.12
441.263	64.12
442.042	68.12
442.822	71.12
443.601	77.12
444.38	84.12
445.16	87.12
445.939	93.12
446.718	99.12
447.497	108.12
448.276	122.12
449.054	129.12
449.833	142.12
450.612	159.12
451.391	179.12
452.169	196.12
452.948	215.12
453.726	232.12
454.504	263.12
455.282	296.12
456.061	339.12
456.839	364.12
457.617	410.12
458.395	455.12
459.172	497.12
459.95	567.12
460.728	631.12
461.506	699.12
462.283	776.12
463.061	885.12
463.838	976.12
464.615	1097.12
465.393	1200.12
466.17	1355.12
466.947	1493.12
467.724	1658.12
468.501	1848.12
469.278	2031.12
470.055	2253.12
470.831	2482.12
471.608	2760.12
472.385	3033.12
473.161	3369.12
473.938	3700.12
474.714	4045.12
475.49	4447.12
476.266	4873.12
477.043	5337.12
477.819	5845.12
478.595	6375.12
479.371	6969.12
480.146	7617.12
480.922	8338.12
481.698	9062.12
482.473	9859.12
483.249	10748.12
484.024	11695.12
484.8	12649.12
485.575	13725.12
486.35	14930.12
487.126	16133.12
487.901	17372.12
488.676	18823.12
489.451	20294.12
490.225	21897.12
491	23426.12
491.775	25011.12
492.55	26859.12
493.324	28556.12
494.099	30258.12
494.873	32138.12
495.647	33904.12
496.422	35793.12
497.196	37584.12
497.97	39257.12
498.744	40683.12
499.518	42379.12
500.292	43670.12
501.066	44764.12
501.839	45585.12
502.613	46295.12
503.387	46939.12
504.16	47324.12
504.934	47487.12
505.707	47450.12
506.48	46947.12
507.253	46453.12
508.027	45725.12
508.8	44784.12
509.573	43617.12
510.346	42614.12
511.118	41515.12
511.891	40180.12
512.664	38735.12
513.437	37175.12
514.209	35858.12
514.982	34467.12
515.754	33089.12
516.526	31645.12
517.298	30387.12
518.071	29182.12
518.843	27985.12
519.615	26891.12
520.387	25886.12
521.159	24860.12
521.93	23827.12
522.702	22795.12
523.474	21832.12
524.245	20916.12
525.017	19980.12
525.788	19119.12
526.56	18285.12
527.331	17504.12
528.102	16539.12
528.873	15706.12
529.644	15053.12
530.415	14387.12
531.186	13624.12
531.957	12931.12
532.728	12223.12
533.498	11585.12
534.269	11004.12
535.039	10373.12
535.81	9845.12
536.58	9304.12
537.351	8756.12
538.121	8362.12
538.891	7905.12
539.661	7461.12
540.431	7078.12
541.201	6720.12
541.971	6364.12
542.741	6011.12
543.51	5724.12
544.28	5450.12
545.05	5181.12
545.819	4942.12
546.588	4695.12
547.358	4487.12
548.127	4263.12
548.896	4044.12
549.665	3818.12
550.434	3624.12
551.203	3445.12
551.972	3272.12
552.741	3098.12
553.51	2922.12
554.278	2749.12
555.047	2607.12
555.815	2454.12
556.584	2315.12
557.352	2190.12
558.121	2088.12
558.889	1954.12
559.657	1855.12
560.425	1737.12
561.193	1644.12
561.961	1590.12
562.729	1485.12
563.496	1417.12
564.264	1334.12
565.032	1244.12
565.799	1183.12
566.567	1122.12
567.334	1059.12
568.101	998.12
568.869	962.12
569.636	903.12
570.403	834.12
571.17	804.12
571.937	761.12
572.704	708.12
573.471	673.12
574.237	627.12
575.004	595.12
575.771	563.12
576.537	525.12
577.303	506.12
578.07	481.12
578.836	447.12
579.602	417.12
580.368	407.12
581.134	381.12
581.9	366.12
582.666	345.12
583.432	326.12
584.198	309.12
584.964	294.12
585.729	284.12
586.495	270.12
587.26	256.12
588.025	237.12
588.791	231.12
589.556	216.12
590.321	206.12
591.086	187.12
591.851	187.12
592.616	175.12
593.381	165.12
594.146	162.12
594.911	153.12
595.675	141.12
596.44	141.12
597.204	135.12
597.969	132.12
598.733	127.12
599.497	116.12
600.261	108.12
601.025	109.12
601.79	103.12
602.553	95.12
603.317	94.12
604.081	89.12
604.845	88.12
605.609	83.12
606.372	81.12
607.136	76.12
607.899	71.12
608.662	71.12
609.426	65.12
610.189	68.12
610.952	64.12
611.715	64.12
612.478	58.12
613.241	57.12
614.004	55.12
614.767	55.12
615.529	51.12
616.292	51.12
617.055	47.12
617.817	47.12
618.579	44.12
619.342	41.12
620.104	40.12
620.866	44.12
621.628	39.12
622.39	37.12
623.152	37.12
623.914	39.12
624.676	35.12
625.438	33.12
626.199	33.12
626.961	33.12
627.722	34.12
628.484	28.12
629.245	27.12
630.006	29.12
630.768	25.12
631.529	29.12
632.29	27.12
633.051	28.12
633.812	24.12
634.573	27.12
635.333	24.12
636.094	21.12
636.855	24.12
637.615	24.12
638.376	18.12
639.136	21.12
639.896	19.12
640.657	20.12
641.417	21.12
642.177	17.12
642.937	19.12
643.697	18.12
644.457	16.12
645.216	17.12
645.976	15.12
646.736	19.12
647.495	16.12
648.255	18.12
649.014	15.12
649.774	14.12
650.533	14.12
651.292	15.12
652.051	15.12
652.81	14.12
653.569	15.12
654.328	14.12
655.087	13.12
655.846	13.12
656.604	13.12
657.363	14.12
658.121	13.12
658.88	12.12
659.638	12.12
660.397	15.12
661.155	13.12
661.913	13.12
662.671	10.12
663.429	8.12
664.187	9.12
664.945	7.12
665.703	10.12
666.46	13.12
667.218	8.12
667.976	12.12
668.733	12.12
669.49	9.12
670.248	8.12
671.005	7.12
671.762	9.12
672.519	10.12
673.276	11.12
674.033	8.12
674.79	10.12
675.547	9.12
676.304	8.12
677.06	8.12
677.817	9.12
678.574	11.12
679.33	8.12
680.086	9.12
680.843	7.12
681.599	9.12
682.355	8.12
683.111	7.12
683.867	7.12
684.623	10.12
685.379	10.12
686.135	8.12
686.89	10.12
687.646	9.12
688.402	6.12
689.157	8.12
689.912	7.12
690.668	6.12
691.423	9.12
692.178	7.12
692.933	9.12
693.688	8.12
694.443	8.12
695.198	7.12
695.953	7.12
696.708	10.12
697.462	7.12
698.217	7.12
698.972	9.12
699.726	6.12
700.48	8.12
701.235	7.12
701.989	8.12
702.743	9.12
703.497	8.12
704.251	8.12
705.005	7.12
705.759	5.12
706.513	9.12
707.266	9.12
708.02	8.12
708.774	6.12
709.527	6.12
710.28	6.12
711.034	11.12
711.787	8.12
712.54	8.12
713.293	8.12
714.046	7.12
714.799	7.12
715.552	8.12
716.305	9.12
717.058	7.12
717.81	5.12
718.563	8.12
719.315	6.12
720.068	8.12
720.82	7.12
721.573	9.12
722.325	7.12
723.077	9.12
723.829	8.12
724.581	9.12
725.333	8.12
726.085	10.12
726.836	7.12
727.588	9.12
728.34	5.12
729.091	9.12
729.843	8.12
730.594	8.12
731.346	9.12
732.097	8.12
732.848	8.12
733.599	9.12
734.35	10.12
735.101	11.12
735.852	9.12
736.603	12.12
737.354	11.12
738.104	11.12
738.855	10.12
739.605	10.12
740.356	9.12
741.106	11.12
741.856	9.12
742.607	12.12
743.357	11.12
744.107	11.12
744.857	9.12
745.607	11.12
746.357	10.12
747.106	11.12
747.856	11.12
748.606	10.12
749.355	11.12
750.105	8.12
750.854	13.12
751.603	10.12
752.353	12.12
753.102	13.12
753.851	13.12
754.6	11.12
755.349	12.12
756.098	11.12
756.847	11.12
757.595	10.12
758.344	12.12
759.093	10.12
759.841	13.12
760.589	12.12
761.338	14.12
762.086	13.12
762.834	11.12
763.582	14.12
764.331	13.12
765.079	15.12
765.826	13.12
766.574	14.12
767.322	14.12
768.07	16.12
768.817	16.12
769.565	13.12
770.312	16.12
771.06	14.12
771.807	16.12
772.554	17.12
773.302	16.12
774.049	16.12
774.796	15.12
775.543	14.12
776.29	15.12
777.036	17.12
777.783	16.12
778.53	17.12
779.276	15.12
780.023	14.12
780.769	17.12
781.516	15.12
782.262	15.12
783.008	16.12
783.754	17.12
784.5	15.12
785.246	17.12
785.992	16.12
786.738	16.12
787.484	16.12
788.23	15.12
788.975	14.12
789.721	18.12
790.466	13.12
791.212	15.12
791.957	15.12
792.702	17.12
793.447	13.12
794.193	17.12
794.938	12.12
795.683	15.12
796.427	14.12
797.172	15.12
797.917	14.12
798.662	13.12
799.406	11.12
800.151	15.12
800.895	12.12
801.64	13.12
802.384	10.12
803.128	13.12
803.872	14.12
804.616	11.12
805.36	13.12
806.104	11.12
806.848	10.12
807.592	12.12
808.336	10.12
809.079	11.12
809.823	12.12
810.566	11.12
811.31	9.12
812.053	10.12
812.796	9.12
813.539	10.12
814.283	11.12
815.026	12.12
815.769	10.12
816.511	8.12
817.254	7.12
817.997	8.12
818.74	8.12
819.482	8.12
820.225	11.12
820.967	5.12
821.71	6.12
822.452	7.12
823.194	9.12
823.936	10.12
824.678	6.12
825.42	7.12
826.162	8.12
826.904	5.12
827.646	4.12
828.388	7.12
829.129	7.12
829.871	6.12
830.612	9.12
831.354	8.12
832.095	5.12
832.836	7.12
833.577	7.12
834.319	9.12
835.06	7.12
835.801	7.12
836.542	5.12
837.282	5.12
838.023	7.12
838.764	5.12
839.504	10.12
840.245	4.12
840.985	5.12
841.726	7.12
842.466	6.12
843.206	6.12
843.946	5.12
844.687	6.12
845.427	4.12
846.166	5.12
846.906	6.12
847.646	7.12
848.386	3.12
849.125	3.12
849.865	2.12
850.605	5.12
851.344	5.12
852.083	6.12
852.823	4.12
853.562	2.12
854.301	7.12
855.04	3.12
855.779	5.12
856.518	5.12
857.257	4.12
857.995	5.12
858.734	2.12
859.473	7.12
860.211	4.12
860.95	3.12
861.688	4.12
862.426	5.12
863.165	3.12
863.903	1.12
864.641	4.12
865.379	2.12
866.117	3.12
866.855	4.12
867.593	1.12
868.33	3.12
869.068	3.12
869.806	2.12
870.543	2.12
871.28	3.12
872.018	1.12
872.755	4.12
873.492	1.12
874.229	2.12
874.967	2.12
875.703	5.12
876.44	1.12
877.177	2.12
877.914	1.12
878.651	1.12
879.387	1.12
880.124	2.12
880.86	2.12
881.597	2.12
882.333	2.12
883.069	-0.88
883.806	3.12
884.542	1.12
885.278	1.12
886.014	2.12
886.749	2.12
887.485	1.12
888.221	0.12
888.957	2.12
889.692	1.12
890.428	2.12
891.163	3.12
891.899	1.12
892.634	3.12
893.369	1.12
894.104	1.12
894.839	3.12
895.574	-0.88
896.309	1.12
897.044	1.12
897.779	3.12
898.514	3.12
899.248	-0.88
899.983	1.12
900.717	2.12
901.452	2.12
902.186	0.12
902.92	1.12
903.654	2.12
904.389	2.12
905.123	1.12
905.857	1.12
906.59	2.12
907.324	0.12
908.058	2.12
908.792	1.12
909.525	1.12
910.259	1.12
910.992	2.12
911.726	-0.88
912.459	-0.88
913.192	1.12
913.925	1.12
914.658	0.12
915.391	0.12
916.124	-0.88
916.857	0.12
917.59	1.12
918.323	3.12
919.055	1.12
919.788	-0.88
920.521	1.12
921.253	5.12
921.985	-0.88
922.718	4.12
923.45	0.12
924.182	1.12
924.914	-1.88
925.646	2.12
926.378	0.12
927.11	-0.88
927.841	1.12
928.573	1.12
929.305	2.12
930.036	1.12
930.768	1.12
931.499	1.12
932.23	1.12
932.962	-0.88
933.693	-0.88
934.424	0.12
935.155	-1.88
935.886	2.12
936.617	2.12
937.348	-2.88
938.078	3.12
938.809	1.12
939.54	-2.88
940.27	2.12
941.001	-0.88
941.731	1.12
942.461	-0.88
943.191	-1.88
943.922	1.12
944.652	1.12
945.382	2.12
946.112	-0.88
946.841	1.12
947.571	0.12
948.301	0.12
949.031	-1.88
949.76	-1.88
950.49	1.12
951.219	1.12
951.948	1.12
952.678	1.12
953.407	-0.88
954.136	2.12
954.865	0.12
955.594	0.12
956.323	0.12
957.052	1.12
957.78	1.12
958.509	0.12
959.238	1.12
959.966	0.12
960.695	1.12
961.423	-0.88
962.151	-0.88
962.88	1.12
963.608	2.12
964.336	1.12
965.064	2.12
965.792	-1.88
966.52	2.12
967.247	0.12
967.975	0.12
968.703	-0.88
969.43	1.12
970.158	2.12
970.885	-0.88
971.613	2.12
972.34	0.12
973.067	1.12
973.794	-0.88
974.521	2.12
975.248	0.12
975.975	1.12
976.702	2.12
977.429	2.12
978.156	0.12
978.882	0.12
979.609	1.12
980.335	0.12
981.062	0.12
981.788	-0.88
982.514	0.12
983.24	1.12
983.967	1.12
984.693	1.12
985.419	1.12
986.144	-0.88
986.87	0.12
987.596	1.12
988.322	0.12
989.047	1.12
989.773	0.12
990.498	0.12
991.224	-0.88
991.949	1.12
992.674	1.12
993.399	-0.88
994.124	2.12
994.849	-0.88
995.574	-0.88
996.299	1.12
997.024	1.12
997.749	0.12
998.473	-0.88
999.198	2.12
999.922	1.12
1000.647	2.12
1001.371	3.12
1002.095	0.12
1002.82	-0.88
1003.544	-1.88
1004.268	5.12
1004.992	3.12
1005.716	4.12
1006.439	4.12
1007.163	6.12
1007.887	5.12
1008.611	-0.88
1009.334	0.12
1010.058	3.12
1010.781	0.12
1011.504	4.12
1012.228	2.12
1012.951	0.12
1013.674	1.12
1014.397	0.12
1015.12	-1.88
