节点500_705_QEPB04081__485__20-52-46-770.txt的数据

Date: Wed Nov 12 20:52:46 CST 2025
User: PC
Spectrometer: QEPB0408
触发模式: 0
积分时间 (秒): 1.000000E-2
Scans to average: 1
启用暗噪声校正: true
启用非线性校正: false
滑动平均宽度: 0
X轴模式: Wavelengths
Number of Pixels in Spectrum: 1044
>>>>>Begin Spectral Data<<<<<
220.843	4.12
221.644	5.12
222.444	5.12
223.244	5.12
224.045	5.12
224.845	5.12
225.645	5.12
226.445	6.12
227.245	7.12
228.045	7.12
228.845	8.12
229.645	6.12
230.444	6.12
231.244	6.12
232.043	9.12
232.843	8.12
233.642	8.12
234.442	8.12
235.241	9.12
236.04	10.12
236.839	7.12
237.638	7.12
238.437	8.12
239.236	8.12
240.035	8.12
240.833	12.12
241.632	12.12
242.43	8.12
243.229	12.12
244.027	11.12
244.826	12.12
245.624	14.12
246.422	12.12
247.22	12.12
248.018	13.12
248.816	13.12
249.614	15.12
250.412	16.12
251.21	17.12
252.007	14.12
252.805	18.12
253.602	15.12
254.4	17.12
255.197	18.12
255.994	18.12
256.791	18.12
257.589	20.12
258.386	21.12
259.183	17.12
259.979	21.12
260.776	20.12
261.573	20.12
262.37	22.12
263.166	21.12
263.963	23.12
264.759	20.12
265.556	26.12
266.352	25.12
267.148	23.12
267.944	27.12
268.74	23.12
269.536	26.12
270.332	26.12
271.128	25.12
271.924	30.12
272.719	28.12
273.515	33.12
274.311	30.12
275.106	32.12
275.901	31.12
276.697	28.12
277.492	33.12
278.287	32.12
279.082	32.12
279.877	32.12
280.672	31.12
281.467	30.12
282.262	31.12
283.056	33.12
283.851	34.12
284.646	31.12
285.44	32.12
286.234	30.12
287.029	30.12
287.823	32.12
288.617	31.12
289.411	32.12
290.205	31.12
290.999	30.12
291.793	27.12
292.587	33.12
293.381	30.12
294.174	29.12
294.968	27.12
295.761	26.12
296.555	26.12
297.348	22.12
298.141	25.12
298.935	27.12
299.728	25.12
300.521	25.12
301.314	22.12
302.107	18.12
302.899	21.12
303.692	23.12
304.485	22.12
305.277	21.12
306.07	21.12
306.862	25.12
307.655	22.12
308.447	20.12
309.239	18.12
310.031	19.12
310.823	20.12
311.615	17.12
312.407	13.12
313.199	18.12
313.991	16.12
314.783	13.12
315.574	15.12
316.366	15.12
317.157	14.12
317.949	16.12
318.74	17.12
319.531	12.12
320.322	12.12
321.113	14.12
321.904	10.12
322.695	12.12
323.486	13.12
324.277	13.12
325.068	12.12
325.858	12.12
326.649	12.12
327.439	11.12
328.23	14.12
329.02	11.12
329.81	11.12
330.6	10.12
331.391	13.12
332.181	12.12
332.971	14.12
333.76	11.12
334.55	12.12
335.34	11.12
336.13	10.12
336.919	10.12
337.709	14.12
338.498	10.12
339.287	8.12
340.077	11.12
340.866	13.12
341.655	12.12
342.444	7.12
343.233	11.12
344.022	10.12
344.811	10.12
345.6	11.12
346.388	11.12
347.177	11.12
347.965	10.12
348.754	11.12
349.542	9.12
350.33	13.12
351.119	10.12
351.907	11.12
352.695	11.12
353.483	8.12
354.271	8.12
355.059	10.12
355.846	9.12
356.634	8.12
357.422	9.12
358.209	11.12
358.997	9.12
359.784	10.12
360.571	9.12
361.359	7.12
362.146	10.12
362.933	8.12
363.72	12.12
364.507	8.12
365.294	9.12
366.081	10.12
366.867	9.12
367.654	10.12
368.44	10.12
369.227	10.12
370.013	8.12
370.8	8.12
371.586	8.12
372.372	8.12
373.158	9.12
373.944	8.12
374.73	10.12
375.516	8.12
376.302	11.12
377.088	7.12
377.873	8.12
378.659	9.12
379.445	8.12
380.23	7.12
381.015	9.12
381.801	8.12
382.586	10.12
383.371	7.12
384.156	10.12
384.941	8.12
385.726	10.12
386.511	11.12
387.296	9.12
388.08	10.12
388.865	12.12
389.649	10.12
390.434	12.12
391.218	10.12
392.003	10.12
392.787	12.12
393.571	11.12
394.355	11.12
395.139	12.12
395.923	12.12
396.707	14.12
397.491	12.12
398.274	10.12
399.058	11.12
399.842	13.12
400.625	14.12
401.408	13.12
402.192	15.12
402.975	13.12
403.758	14.12
404.541	12.12
405.324	15.12
406.107	13.12
406.89	14.12
407.673	11.12
408.456	13.12
409.238	15.12
410.021	14.12
410.803	16.12
411.586	15.12
412.368	14.12
413.151	16.12
413.933	15.12
414.715	15.12
415.497	17.12
416.279	19.12
417.061	18.12
417.843	20.12
418.624	18.12
419.406	16.12
420.188	21.12
420.969	20.12
421.751	20.12
422.532	24.12
423.313	22.12
424.095	20.12
424.876	23.12
425.657	24.12
426.438	25.12
427.219	25.12
428	28.12
428.78	25.12
429.561	27.12
430.342	27.12
431.122	30.12
431.903	33.12
432.683	30.12
433.464	34.12
434.244	38.12
435.024	37.12
435.804	36.12
436.584	45.12
437.364	44.12
438.144	48.12
438.924	51.12
439.704	50.12
440.483	55.12
441.263	60.12
442.042	66.12
442.822	70.12
443.601	77.12
444.38	81.12
445.16	89.12
445.939	92.12
446.718	101.12
447.497	114.12
448.276	125.12
449.054	140.12
449.833	155.12
450.612	163.12
451.391	183.12
452.169	204.12
452.948	227.12
453.726	249.12
454.504	270.12
455.282	311.12
456.061	345.12
456.839	387.12
457.617	425.12
458.395	477.12
459.172	532.12
459.95	581.12
460.728	649.12
461.506	720.12
462.283	807.12
463.061	904.12
463.838	1008.12
464.615	1112.12
465.393	1235.12
466.17	1369.12
466.947	1510.12
467.724	1676.12
468.501	1868.12
469.278	2054.12
470.055	2255.12
470.831	2482.12
471.608	2751.12
472.385	2997.12
473.161	3293.12
473.938	3621.12
474.714	3968.12
475.49	4357.12
476.266	4748.12
477.043	5199.12
477.819	5675.12
478.595	6146.12
479.371	6742.12
480.146	7306.12
480.922	7958.12
481.698	8596.12
482.473	9360.12
483.249	10220.12
484.024	11003.12
484.8	11918.12
485.575	12831.12
486.35	13870.12
487.126	15066.12
487.901	16177.12
488.676	17390.12
489.451	18776.12
490.225	20161.12
491	21559.12
491.775	23082.12
492.55	24640.12
493.324	26222.12
494.099	27836.12
494.873	29480.12
495.647	31149.12
496.422	32730.12
497.196	34500.12
497.97	36112.12
498.744	37545.12
499.518	39149.12
500.292	40482.12
501.066	41527.12
501.839	42421.12
502.613	43307.12
503.387	44078.12
504.16	44605.12
504.934	44983.12
505.707	45064.12
506.48	44828.12
507.253	44479.12
508.027	44129.12
508.8	43349.12
509.573	42541.12
510.346	41670.12
511.118	40733.12
511.891	39696.12
512.664	38312.12
513.437	37006.12
514.209	35717.12
514.982	34348.12
515.754	33052.12
516.526	31797.12
517.298	30575.12
518.071	29413.12
518.843	28225.12
519.615	27019.12
520.387	26005.12
521.159	25022.12
521.93	23944.12
522.702	22974.12
523.474	22068.12
524.245	21131.12
525.017	20249.12
525.788	19402.12
526.56	18654.12
527.331	17835.12
528.102	16889.12
528.873	16055.12
529.644	15377.12
530.415	14690.12
531.186	13947.12
531.957	13225.12
532.728	12588.12
533.498	11932.12
534.269	11333.12
535.039	10727.12
535.81	10157.12
536.58	9584.12
537.351	9116.12
538.121	8633.12
538.891	8179.12
539.661	7705.12
540.431	7296.12
541.201	6930.12
541.971	6542.12
542.741	6217.12
543.51	5893.12
544.28	5616.12
545.05	5323.12
545.819	5093.12
546.588	4886.12
547.358	4653.12
548.127	4404.12
548.896	4180.12
549.665	3973.12
550.434	3760.12
551.203	3586.12
551.972	3376.12
552.741	3223.12
553.51	3041.12
554.278	2852.12
555.047	2703.12
555.815	2575.12
556.584	2433.12
557.352	2291.12
558.121	2155.12
558.889	2055.12
559.657	1932.12
560.425	1826.12
561.193	1741.12
561.961	1650.12
562.729	1568.12
563.496	1478.12
564.264	1381.12
565.032	1313.12
565.799	1243.12
566.567	1173.12
567.334	1115.12
568.101	1042.12
568.869	996.12
569.636	938.12
570.403	879.12
571.17	846.12
571.937	772.12
572.704	743.12
573.471	704.12
574.237	660.12
575.004	624.12
575.771	589.12
576.537	553.12
577.303	518.12
578.07	500.12
578.836	467.12
579.602	442.12
580.368	419.12
581.134	400.12
581.9	380.12
582.666	367.12
583.432	344.12
584.198	329.12
584.964	307.12
585.729	292.12
586.495	278.12
587.26	262.12
588.025	255.12
588.791	233.12
589.556	218.12
590.321	215.12
591.086	204.12
591.851	194.12
592.616	186.12
593.381	172.12
594.146	163.12
594.911	160.12
595.675	152.12
596.44	142.12
597.204	142.12
597.969	135.12
598.733	126.12
599.497	120.12
600.261	119.12
601.025	110.12
601.79	106.12
602.553	95.12
603.317	99.12
604.081	98.12
604.845	90.12
605.609	88.12
606.372	80.12
607.136	82.12
607.899	77.12
608.662	70.12
609.426	69.12
610.189	68.12
610.952	66.12
611.715	67.12
612.478	60.12
613.241	56.12
614.004	56.12
614.767	54.12
615.529	54.12
616.292	48.12
617.055	48.12
617.817	46.12
618.579	46.12
619.342	45.12
620.104	46.12
620.866	39.12
621.628	41.12
622.39	41.12
623.152	36.12
623.914	39.12
624.676	30.12
625.438	32.12
626.199	34.12
626.961	29.12
627.722	33.12
628.484	29.12
629.245	29.12
630.006	29.12
630.768	26.12
631.529	26.12
632.29	27.12
633.051	24.12
633.812	26.12
634.573	27.12
635.333	22.12
636.094	24.12
636.855	20.12
637.615	20.12
638.376	22.12
639.136	18.12
639.896	19.12
640.657	19.12
641.417	18.12
642.177	17.12
642.937	18.12
643.697	17.12
644.457	17.12
645.216	16.12
645.976	16.12
646.736	14.12
647.495	17.12
648.255	14.12
649.014	15.12
649.774	15.12
650.533	13.12
651.292	12.12
652.051	12.12
652.81	12.12
653.569	10.12
654.328	13.12
655.087	13.12
655.846	15.12
656.604	10.12
657.363	13.12
658.121	11.12
658.88	12.12
659.638	10.12
660.397	10.12
661.155	12.12
661.913	12.12
662.671	8.12
663.429	9.12
664.187	10.12
664.945	10.12
665.703	8.12
666.46	8.12
667.218	11.12
667.976	9.12
668.733	10.12
669.49	7.12
670.248	7.12
671.005	11.12
671.762	9.12
672.519	10.12
673.276	9.12
674.033	9.12
674.79	8.12
675.547	9.12
676.304	7.12
677.06	9.12
677.817	8.12
678.574	5.12
679.33	7.12
680.086	10.12
680.843	8.12
681.599	8.12
682.355	9.12
683.111	6.12
683.867	10.12
684.623	7.12
685.379	8.12
686.135	7.12
686.89	8.12
687.646	8.12
688.402	8.12
689.157	8.12
689.912	5.12
690.668	6.12
691.423	8.12
692.178	6.12
692.933	7.12
693.688	6.12
694.443	7.12
695.198	7.12
695.953	9.12
696.708	5.12
697.462	5.12
698.217	8.12
698.972	5.12
699.726	6.12
700.48	7.12
701.235	5.12
701.989	9.12
702.743	7.12
703.497	7.12
704.251	7.12
705.005	8.12
705.759	8.12
706.513	7.12
707.266	8.12
708.02	5.12
708.774	9.12
709.527	8.12
710.28	8.12
711.034	6.12
711.787	6.12
712.54	9.12
713.293	6.12
714.046	8.12
714.799	7.12
715.552	6.12
716.305	7.12
717.058	7.12
717.81	7.12
718.563	7.12
719.315	8.12
720.068	6.12
720.82	7.12
721.573	6.12
722.325	8.12
723.077	8.12
723.829	8.12
724.581	10.12
725.333	7.12
726.085	6.12
726.836	9.12
727.588	6.12
728.34	8.12
729.091	6.12
729.843	9.12
730.594	8.12
731.346	9.12
732.097	7.12
732.848	7.12
733.599	9.12
734.35	5.12
735.101	6.12
735.852	8.12
736.603	8.12
737.354	9.12
738.104	10.12
738.855	6.12
739.605	10.12
740.356	9.12
741.106	9.12
741.856	9.12
742.607	10.12
743.357	9.12
744.107	7.12
744.857	10.12
745.607	10.12
746.357	7.12
747.106	12.12
747.856	10.12
748.606	8.12
749.355	10.12
750.105	10.12
750.854	11.12
751.603	10.12
752.353	11.12
753.102	10.12
753.851	12.12
754.6	8.12
755.349	10.12
756.098	10.12
756.847	10.12
757.595	11.12
758.344	11.12
759.093	11.12
759.841	12.12
760.589	10.12
761.338	13.12
762.086	8.12
762.834	12.12
763.582	12.12
764.331	10.12
765.079	10.12
765.826	12.12
766.574	14.12
767.322	13.12
768.07	11.12
768.817	14.12
769.565	13.12
770.312	12.12
771.06	12.12
771.807	13.12
772.554	12.12
773.302	15.12
774.049	13.12
774.796	15.12
775.543	16.12
776.29	14.12
777.036	14.12
777.783	13.12
778.53	14.12
779.276	13.12
780.023	14.12
780.769	17.12
781.516	12.12
782.262	15.12
783.008	16.12
783.754	13.12
784.5	14.12
785.246	12.12
785.992	14.12
786.738	14.12
787.484	13.12
788.23	12.12
788.975	12.12
789.721	16.12
790.466	14.12
791.212	13.12
791.957	12.12
792.702	14.12
793.447	12.12
794.193	13.12
794.938	14.12
795.683	10.12
796.427	12.12
797.172	12.12
797.917	12.12
798.662	11.12
799.406	10.12
800.151	12.12
800.895	11.12
801.64	12.12
802.384	10.12
803.128	11.12
803.872	7.12
804.616	10.12
805.36	10.12
806.104	9.12
806.848	11.12
807.592	9.12
808.336	7.12
809.079	10.12
809.823	8.12
810.566	9.12
811.31	8.12
812.053	9.12
812.796	10.12
813.539	6.12
814.283	11.12
815.026	9.12
815.769	7.12
816.511	6.12
817.254	7.12
817.997	9.12
818.74	7.12
819.482	8.12
820.225	7.12
820.967	8.12
821.71	6.12
822.452	4.12
823.194	10.12
823.936	4.12
824.678	9.12
825.42	8.12
826.162	7.12
826.904	6.12
827.646	3.12
828.388	6.12
829.129	5.12
829.871	7.12
830.612	7.12
831.354	5.12
832.095	5.12
832.836	7.12
833.577	5.12
834.319	6.12
835.06	5.12
835.801	5.12
836.542	4.12
837.282	6.12
838.023	3.12
838.764	4.12
839.504	5.12
840.245	5.12
840.985	8.12
841.726	5.12
842.466	5.12
843.206	9.12
843.946	3.12
844.687	5.12
845.427	4.12
846.166	5.12
846.906	3.12
847.646	3.12
848.386	5.12
849.125	3.12
849.865	6.12
850.605	2.12
851.344	5.12
852.083	4.12
852.823	4.12
853.562	3.12
854.301	5.12
855.04	3.12
855.779	5.12
856.518	4.12
857.257	4.12
857.995	3.12
858.734	4.12
859.473	4.12
860.211	4.12
860.95	4.12
861.688	5.12
862.426	3.12
863.165	2.12
863.903	2.12
864.641	3.12
865.379	4.12
866.117	2.12
866.855	2.12
867.593	3.12
868.33	1.12
869.068	0.12
869.806	3.12
870.543	2.12
871.28	2.12
872.018	3.12
872.755	3.12
873.492	1.12
874.229	4.12
874.967	0.12
875.703	1.12
876.44	1.12
877.177	2.12
877.914	3.12
878.651	0.12
879.387	2.12
880.124	2.12
880.86	2.12
881.597	1.12
882.333	0.12
883.069	0.12
883.806	-0.88
884.542	4.12
885.278	2.12
886.014	-1.88
886.749	0.12
887.485	2.12
888.221	1.12
888.957	0.12
889.692	-0.88
890.428	1.12
891.163	1.12
891.899	1.12
892.634	-0.88
893.369	1.12
894.104	-1.88
894.839	-1.88
895.574	-0.88
896.309	0.12
897.044	0.12
897.779	0.12
898.514	1.12
899.248	-1.88
899.983	1.12
900.717	0.12
901.452	1.12
902.186	2.12
902.92	-0.88
903.654	0.12
904.389	0.12
905.123	-1.88
905.857	-0.88
906.59	-0.88
907.324	-0.88
908.058	0.12
908.792	1.12
909.525	1.12
910.259	0.12
910.992	-0.88
911.726	1.12
912.459	-1.88
913.192	0.12
913.925	1.12
914.658	1.12
915.391	-0.88
916.124	0.12
916.857	-0.88
917.59	-1.88
918.323	1.12
919.055	-0.88
919.788	-0.88
920.521	-0.88
921.253	0.12
921.985	0.12
922.718	1.12
923.45	-1.88
924.182	-0.88
924.914	-0.88
925.646	0.12
926.378	-1.88
927.11	1.12
927.841	-0.88
928.573	1.12
929.305	0.12
930.036	-3.88
930.768	0.12
931.499	1.12
932.23	1.12
932.962	2.12
933.693	2.12
934.424	0.12
935.155	1.12
935.886	-0.88
936.617	-0.88
937.348	1.12
938.078	-1.88
938.809	0.12
939.54	-0.88
940.27	-1.88
941.001	0.12
941.731	0.12
942.461	0.12
943.191	1.12
943.922	-0.88
944.652	-1.88
945.382	0.12
946.112	-0.88
946.841	1.12
947.571	0.12
948.301	-0.88
949.031	-0.88
949.76	0.12
950.49	0.12
951.219	1.12
951.948	-3.88
952.678	1.12
953.407	-0.88
954.136	1.12
954.865	0.12
955.594	-0.88
956.323	0.12
957.052	-0.88
957.78	-1.88
958.509	-1.88
959.238	-0.88
959.966	2.12
960.695	1.12
961.423	0.12
962.151	-1.88
962.88	-0.88
963.608	1.12
964.336	-1.88
965.064	1.12
965.792	-0.88
966.52	1.12
967.247	1.12
967.975	-0.88
968.703	-0.88
969.43	-0.88
970.158	0.12
970.885	-0.88
971.613	0.12
972.34	0.12
973.067	-1.88
973.794	0.12
974.521	-0.88
975.248	0.12
975.975	-2.88
976.702	0.12
977.429	0.12
978.156	0.12
978.882	0.12
979.609	2.12
980.335	-0.88
981.062	-0.88
981.788	-1.88
982.514	-0.88
983.24	0.12
983.967	0.12
984.693	0.12
985.419	0.12
986.144	-0.88
986.87	2.12
987.596	-1.88
988.322	0.12
989.047	-0.88
989.773	0.12
990.498	0.12
991.224	-3.88
991.949	0.12
992.674	0.12
993.399	3.12
994.124	0.12
994.849	-1.88
995.574	-0.88
996.299	-1.88
997.024	-0.88
997.749	0.12
998.473	0.12
999.198	0.12
999.922	2.12
1000.647	-1.88
1001.371	4.12
1002.095	-0.88
1002.82	0.12
1003.544	-1.88
1004.268	4.12
1004.992	5.12
1005.716	5.12
1006.439	2.12
1007.163	5.12
1007.887	5.12
1008.611	-0.88
1009.334	-1.88
1010.058	-1.88
1010.781	1.12
1011.504	0.12
1012.228	1.12
1012.951	0.12
1013.674	1.12
1014.397	-1.88
1015.12	-0.88
