节点500_705_QEPB04081__542__20-53-38-719.txt的数据

Date: Wed Nov 12 20:53:38 CST 2025
User: PC
Spectrometer: QEPB0408
触发模式: 0
积分时间 (秒): 1.000000E-2
Scans to average: 1
启用暗噪声校正: true
启用非线性校正: false
滑动平均宽度: 0
X轴模式: Wavelengths
Number of Pixels in Spectrum: 1044
>>>>>Begin Spectral Data<<<<<
220.843	8.5
221.644	6.5
222.444	4.5
223.244	8.5
224.045	6.5
224.845	6.5
225.645	8.5
226.445	7.5
227.245	7.5
228.045	8.5
228.845	10.5
229.645	9.5
230.444	10.5
231.244	10.5
232.043	10.5
232.843	8.5
233.642	8.5
234.442	11.5
235.241	9.5
236.04	10.5
236.839	10.5
237.638	13.5
238.437	9.5
239.236	13.5
240.035	11.5
240.833	13.5
241.632	10.5
242.43	11.5
243.229	10.5
244.027	14.5
244.826	8.5
245.624	11.5
246.422	13.5
247.22	15.5
248.018	13.5
248.816	15.5
249.614	13.5
250.412	16.5
251.21	17.5
252.007	18.5
252.805	17.5
253.602	18.5
254.4	18.5
255.197	15.5
255.994	18.5
256.791	20.5
257.589	19.5
258.386	18.5
259.183	20.5
259.979	21.5
260.776	21.5
261.573	21.5
262.37	23.5
263.166	23.5
263.963	24.5
264.759	25.5
265.556	24.5
266.352	23.5
267.148	26.5
267.944	27.5
268.74	25.5
269.536	27.5
270.332	28.5
271.128	28.5
271.924	27.5
272.719	28.5
273.515	26.5
274.311	31.5
275.106	29.5
275.901	27.5
276.697	29.5
277.492	33.5
278.287	31.5
279.082	30.5
279.877	33.5
280.672	34.5
281.467	33.5
282.262	30.5
283.056	30.5
283.851	35.5
284.646	31.5
285.44	31.5
286.234	34.5
287.029	32.5
287.823	34.5
288.617	31.5
289.411	32.5
290.205	33.5
290.999	30.5
291.793	34.5
292.587	28.5
293.381	31.5
294.174	28.5
294.968	29.5
295.761	26.5
296.555	26.5
297.348	27.5
298.141	27.5
298.935	33.5
299.728	26.5
300.521	24.5
301.314	24.5
302.107	23.5
302.899	23.5
303.692	22.5
304.485	25.5
305.277	22.5
306.07	20.5
306.862	19.5
307.655	20.5
308.447	22.5
309.239	23.5
310.031	21.5
310.823	21.5
311.615	16.5
312.407	19.5
313.199	15.5
313.991	16.5
314.783	18.5
315.574	15.5
316.366	18.5
317.157	16.5
317.949	14.5
318.74	15.5
319.531	16.5
320.322	15.5
321.113	14.5
321.904	15.5
322.695	15.5
323.486	13.5
324.277	14.5
325.068	16.5
325.858	14.5
326.649	15.5
327.439	16.5
328.23	13.5
329.02	11.5
329.81	13.5
330.6	12.5
331.391	15.5
332.181	13.5
332.971	13.5
333.76	14.5
334.55	13.5
335.34	12.5
336.13	11.5
336.919	14.5
337.709	13.5
338.498	13.5
339.287	12.5
340.077	11.5
340.866	13.5
341.655	14.5
342.444	15.5
343.233	11.5
344.022	11.5
344.811	11.5
345.6	11.5
346.388	11.5
347.177	11.5
347.965	11.5
348.754	11.5
349.542	11.5
350.33	10.5
351.119	8.5
351.907	10.5
352.695	10.5
353.483	11.5
354.271	11.5
355.059	12.5
355.846	10.5
356.634	9.5
357.422	11.5
358.209	9.5
358.997	10.5
359.784	8.5
360.571	10.5
361.359	14.5
362.146	7.5
362.933	10.5
363.72	9.5
364.507	10.5
365.294	11.5
366.081	9.5
366.867	10.5
367.654	8.5
368.44	9.5
369.227	11.5
370.013	9.5
370.8	8.5
371.586	9.5
372.372	11.5
373.158	7.5
373.944	11.5
374.73	10.5
375.516	7.5
376.302	11.5
377.088	12.5
377.873	9.5
378.659	9.5
379.445	7.5
380.23	9.5
381.015	12.5
381.801	10.5
382.586	12.5
383.371	10.5
384.156	9.5
384.941	11.5
385.726	11.5
386.511	10.5
387.296	12.5
388.08	12.5
388.865	9.5
389.649	13.5
390.434	11.5
391.218	12.5
392.003	12.5
392.787	10.5
393.571	11.5
394.355	12.5
395.139	13.5
395.923	12.5
396.707	13.5
397.491	12.5
398.274	11.5
399.058	13.5
399.842	12.5
400.625	13.5
401.408	14.5
402.192	14.5
402.975	15.5
403.758	15.5
404.541	13.5
405.324	15.5
406.107	15.5
406.89	15.5
407.673	13.5
408.456	15.5
409.238	15.5
410.021	16.5
410.803	15.5
411.586	16.5
412.368	15.5
413.151	16.5
413.933	18.5
414.715	18.5
415.497	19.5
416.279	18.5
417.061	16.5
417.843	17.5
418.624	17.5
419.406	19.5
420.188	20.5
420.969	20.5
421.751	23.5
422.532	21.5
423.313	20.5
424.095	25.5
424.876	25.5
425.657	23.5
426.438	26.5
427.219	24.5
428	28.5
428.78	28.5
429.561	24.5
430.342	29.5
431.122	33.5
431.903	30.5
432.683	32.5
433.464	35.5
434.244	41.5
435.024	40.5
435.804	40.5
436.584	44.5
437.364	43.5
438.144	49.5
438.924	50.5
439.704	57.5
440.483	54.5
441.263	63.5
442.042	70.5
442.822	71.5
443.601	80.5
444.38	84.5
445.16	88.5
445.939	104.5
446.718	105.5
447.497	118.5
448.276	129.5
449.054	142.5
449.833	152.5
450.612	172.5
451.391	189.5
452.169	207.5
452.948	229.5
453.726	259.5
454.504	284.5
455.282	316.5
456.061	347.5
456.839	389.5
457.617	433.5
458.395	490.5
459.172	529.5
459.95	598.5
460.728	664.5
461.506	741.5
462.283	818.5
463.061	920.5
463.838	1025.5
464.615	1127.5
465.393	1259.5
466.17	1394.5
466.947	1528.5
467.724	1687.5
468.501	1867.5
469.278	2074.5
470.055	2262.5
470.831	2502.5
471.608	2765.5
472.385	3025.5
473.161	3333.5
473.938	3656.5
474.714	3976.5
475.49	4347.5
476.266	4712.5
477.043	5159.5
477.819	5619.5
478.595	6131.5
479.371	6649.5
480.146	7195.5
480.922	7816.5
481.698	8507.5
482.473	9206.5
483.249	10024.5
484.024	10802.5
484.8	11680.5
485.575	12603.5
486.35	13580.5
487.126	14689.5
487.901	15822.5
488.676	17006.5
489.451	18376.5
490.225	19618.5
491	20990.5
491.775	22401.5
492.55	23950.5
493.324	25475.5
494.099	27141.5
494.873	28566.5
495.647	30344.5
496.422	31912.5
497.196	33548.5
497.97	35114.5
498.744	36571.5
499.518	38129.5
500.292	39503.5
501.066	40541.5
501.839	41455.5
502.613	42412.5
503.387	43086.5
504.16	43871.5
504.934	44041.5
505.707	44367.5
506.48	44246.5
507.253	43928.5
508.027	43597.5
508.8	43027.5
509.573	42205.5
510.346	41495.5
511.118	40578.5
511.891	39674.5
512.664	38285.5
513.437	37055.5
514.209	35804.5
514.982	34488.5
515.754	33224.5
516.526	31949.5
517.298	30704.5
518.071	29609.5
518.843	28415.5
519.615	27239.5
520.387	26208.5
521.159	25161.5
521.93	24189.5
522.702	23169.5
523.474	22200.5
524.245	21321.5
525.017	20430.5
525.788	19603.5
526.56	18795.5
527.331	18010.5
528.102	17154.5
528.873	16295.5
529.644	15520.5
530.415	14819.5
531.186	14191.5
531.957	13413.5
532.728	12758.5
533.498	12104.5
534.269	11495.5
535.039	10935.5
535.81	10318.5
536.58	9780.5
537.351	9247.5
538.121	8812.5
538.891	8318.5
539.661	7869.5
540.431	7474.5
541.201	7069.5
541.971	6707.5
542.741	6309.5
543.51	6000.5
544.28	5759.5
545.05	5452.5
545.819	5203.5
546.588	4964.5
547.358	4717.5
548.127	4489.5
548.896	4265.5
549.665	4064.5
550.434	3860.5
551.203	3659.5
551.972	3468.5
552.741	3293.5
553.51	3097.5
554.278	2934.5
555.047	2747.5
555.815	2625.5
556.584	2490.5
557.352	2340.5
558.121	2226.5
558.889	2106.5
559.657	1979.5
560.425	1885.5
561.193	1782.5
561.961	1698.5
562.729	1594.5
563.496	1505.5
564.264	1411.5
565.032	1342.5
565.799	1274.5
566.567	1199.5
567.334	1132.5
568.101	1080.5
568.869	1016.5
569.636	951.5
570.403	894.5
571.17	862.5
571.937	797.5
572.704	752.5
573.471	726.5
574.237	682.5
575.004	642.5
575.771	596.5
576.537	565.5
577.303	539.5
578.07	510.5
578.836	486.5
579.602	454.5
580.368	435.5
581.134	406.5
581.9	385.5
582.666	367.5
583.432	355.5
584.198	336.5
584.964	321.5
585.729	299.5
586.495	296.5
587.26	264.5
588.025	257.5
588.791	244.5
589.556	223.5
590.321	217.5
591.086	205.5
591.851	200.5
592.616	190.5
593.381	180.5
594.146	171.5
594.911	164.5
595.675	160.5
596.44	152.5
597.204	141.5
597.969	136.5
598.733	131.5
599.497	126.5
600.261	120.5
601.025	114.5
601.79	110.5
602.553	105.5
603.317	101.5
604.081	96.5
604.845	97.5
605.609	90.5
606.372	83.5
607.136	81.5
607.899	77.5
608.662	78.5
609.426	74.5
610.189	70.5
610.952	67.5
611.715	69.5
612.478	64.5
613.241	60.5
614.004	57.5
614.767	57.5
615.529	56.5
616.292	51.5
617.055	52.5
617.817	49.5
618.579	49.5
619.342	48.5
620.104	43.5
620.866	42.5
621.628	42.5
622.39	39.5
623.152	39.5
623.914	37.5
624.676	35.5
625.438	34.5
626.199	34.5
626.961	31.5
627.722	34.5
628.484	35.5
629.245	28.5
630.006	29.5
630.768	29.5
631.529	29.5
632.29	29.5
633.051	26.5
633.812	24.5
634.573	24.5
635.333	26.5
636.094	24.5
636.855	24.5
637.615	22.5
638.376	19.5
639.136	22.5
639.896	19.5
640.657	20.5
641.417	19.5
642.177	18.5
642.937	18.5
643.697	18.5
644.457	20.5
645.216	18.5
645.976	15.5
646.736	18.5
647.495	14.5
648.255	14.5
649.014	18.5
649.774	14.5
650.533	13.5
651.292	15.5
652.051	15.5
652.81	14.5
653.569	14.5
654.328	13.5
655.087	14.5
655.846	10.5
656.604	12.5
657.363	12.5
658.121	12.5
658.88	11.5
659.638	13.5
660.397	9.5
661.155	11.5
661.913	12.5
662.671	11.5
663.429	8.5
664.187	11.5
664.945	11.5
665.703	11.5
666.46	10.5
667.218	12.5
667.976	9.5
668.733	11.5
669.49	9.5
670.248	11.5
671.005	9.5
671.762	10.5
672.519	10.5
673.276	11.5
674.033	10.5
674.79	8.5
675.547	7.5
676.304	8.5
677.06	7.5
677.817	10.5
678.574	8.5
679.33	8.5
680.086	7.5
680.843	9.5
681.599	8.5
682.355	10.5
683.111	9.5
683.867	7.5
684.623	10.5
685.379	8.5
686.135	8.5
686.89	7.5
687.646	9.5
688.402	5.5
689.157	7.5
689.912	10.5
690.668	6.5
691.423	7.5
692.178	6.5
692.933	7.5
693.688	9.5
694.443	7.5
695.198	8.5
695.953	7.5
696.708	9.5
697.462	10.5
698.217	6.5
698.972	9.5
699.726	8.5
700.48	7.5
701.235	5.5
701.989	9.5
702.743	8.5
703.497	7.5
704.251	8.5
705.005	4.5
705.759	7.5
706.513	7.5
707.266	6.5
708.02	6.5
708.774	4.5
709.527	8.5
710.28	8.5
711.034	10.5
711.787	5.5
712.54	3.5
713.293	7.5
714.046	5.5
714.799	7.5
715.552	8.5
716.305	9.5
717.058	9.5
717.81	7.5
718.563	8.5
719.315	8.5
720.068	7.5
720.82	7.5
721.573	8.5
722.325	5.5
723.077	8.5
723.829	10.5
724.581	9.5
725.333	7.5
726.085	10.5
726.836	6.5
727.588	8.5
728.34	8.5
729.091	8.5
729.843	10.5
730.594	10.5
731.346	11.5
732.097	8.5
732.848	9.5
733.599	7.5
734.35	9.5
735.101	9.5
735.852	8.5
736.603	7.5
737.354	8.5
738.104	9.5
738.855	10.5
739.605	11.5
740.356	10.5
741.106	10.5
741.856	12.5
742.607	9.5
743.357	10.5
744.107	8.5
744.857	11.5
745.607	8.5
746.357	10.5
747.106	11.5
747.856	9.5
748.606	11.5
749.355	11.5
750.105	9.5
750.854	12.5
751.603	10.5
752.353	10.5
753.102	9.5
753.851	10.5
754.6	12.5
755.349	11.5
756.098	11.5
756.847	9.5
757.595	12.5
758.344	10.5
759.093	10.5
759.841	11.5
760.589	12.5
761.338	12.5
762.086	11.5
762.834	13.5
763.582	14.5
764.331	11.5
765.079	12.5
765.826	13.5
766.574	11.5
767.322	13.5
768.07	13.5
768.817	15.5
769.565	13.5
770.312	16.5
771.06	14.5
771.807	13.5
772.554	13.5
773.302	12.5
774.049	14.5
774.796	15.5
775.543	14.5
776.29	15.5
777.036	16.5
777.783	13.5
778.53	15.5
779.276	12.5
780.023	14.5
780.769	17.5
781.516	13.5
782.262	15.5
783.008	14.5
783.754	11.5
784.5	13.5
785.246	15.5
785.992	16.5
786.738	14.5
787.484	13.5
788.23	14.5
788.975	15.5
789.721	16.5
790.466	13.5
791.212	14.5
791.957	14.5
792.702	13.5
793.447	14.5
794.193	13.5
794.938	17.5
795.683	13.5
796.427	11.5
797.172	14.5
797.917	11.5
798.662	12.5
799.406	13.5
800.151	12.5
800.895	9.5
801.64	10.5
802.384	11.5
803.128	14.5
803.872	13.5
804.616	14.5
805.36	13.5
806.104	10.5
806.848	10.5
807.592	12.5
808.336	10.5
809.079	9.5
809.823	10.5
810.566	8.5
811.31	10.5
812.053	7.5
812.796	11.5
813.539	10.5
814.283	6.5
815.026	7.5
815.769	7.5
816.511	8.5
817.254	8.5
817.997	7.5
818.74	7.5
819.482	8.5
820.225	10.5
820.967	7.5
821.71	7.5
822.452	4.5
823.194	10.5
823.936	4.5
824.678	9.5
825.42	7.5
826.162	7.5
826.904	10.5
827.646	9.5
828.388	8.5
829.129	10.5
829.871	7.5
830.612	6.5
831.354	4.5
832.095	5.5
832.836	6.5
833.577	6.5
834.319	8.5
835.06	6.5
835.801	8.5
836.542	7.5
837.282	5.5
838.023	6.5
838.764	5.5
839.504	5.5
840.245	5.5
840.985	6.5
841.726	4.5
842.466	5.5
843.206	7.5
843.946	5.5
844.687	4.5
845.427	6.5
846.166	3.5
846.906	7.5
847.646	5.5
848.386	5.5
849.125	5.5
849.865	4.5
850.605	4.5
851.344	5.5
852.083	5.5
852.823	5.5
853.562	7.5
854.301	5.5
855.04	4.5
855.779	3.5
856.518	3.5
857.257	4.5
857.995	3.5
858.734	4.5
859.473	3.5
860.211	6.5
860.95	4.5
861.688	3.5
862.426	3.5
863.165	2.5
863.903	3.5
864.641	3.5
865.379	5.5
866.117	3.5
866.855	3.5
867.593	4.5
868.33	4.5
869.068	5.5
869.806	3.5
870.543	2.5
871.28	4.5
872.018	1.5
872.755	4.5
873.492	2.5
874.229	4.5
874.967	2.5
875.703	1.5
876.44	2.5
877.177	-0.5
877.914	2.5
878.651	0.5
879.387	1.5
880.124	3.5
880.86	2.5
881.597	2.5
882.333	3.5
883.069	2.5
883.806	0.5
884.542	1.5
885.278	2.5
886.014	2.5
886.749	4.5
887.485	2.5
888.221	1.5
888.957	2.5
889.692	2.5
890.428	3.5
891.163	-0.5
891.899	0.5
892.634	2.5
893.369	2.5
894.104	2.5
894.839	0.5
895.574	0.5
896.309	1.5
897.044	3.5
897.779	1.5
898.514	0.5
899.248	4.5
899.983	0.5
900.717	3.5
901.452	1.5
902.186	1.5
902.92	2.5
903.654	1.5
904.389	2.5
905.123	1.5
905.857	0.5
906.59	2.5
907.324	0.5
908.058	2.5
908.792	1.5
909.525	2.5
910.259	1.5
910.992	1.5
911.726	1.5
912.459	1.5
913.192	0.5
913.925	2.5
914.658	1.5
915.391	0.5
916.124	-0.5
916.857	0.5
917.59	0.5
918.323	2.5
919.055	1.5
919.788	2.5
920.521	0.5
921.253	1.5
921.985	0.5
922.718	0.5
923.45	-0.5
924.182	2.5
924.914	1.5
925.646	1.5
926.378	-0.5
927.11	2.5
927.841	2.5
928.573	0.5
929.305	1.5
930.036	2.5
930.768	-1.5
931.499	-0.5
932.23	1.5
932.962	-0.5
933.693	1.5
934.424	2.5
935.155	-0.5
935.886	-0.5
936.617	1.5
937.348	0.5
938.078	0.5
938.809	-0.5
939.54	-0.5
940.27	-0.5
941.001	2.5
941.731	3.5
942.461	3.5
943.191	2.5
943.922	0.5
944.652	2.5
945.382	1.5
946.112	1.5
946.841	2.5
947.571	0.5
948.301	2.5
949.031	2.5
949.76	2.5
950.49	0.5
951.219	0.5
951.948	1.5
952.678	1.5
953.407	4.5
954.136	0.5
954.865	0.5
955.594	1.5
956.323	0.5
957.052	0.5
957.78	-0.5
958.509	2.5
959.238	0.5
959.966	-1.5
960.695	-0.5
961.423	-0.5
962.151	0.5
962.88	0.5
963.608	-0.5
964.336	1.5
965.064	0.5
965.792	0.5
966.52	2.5
967.247	2.5
967.975	-0.5
968.703	0.5
969.43	0.5
970.158	-0.5
970.885	0.5
971.613	1.5
972.34	0.5
973.067	0.5
973.794	3.5
974.521	2.5
975.248	2.5
975.975	-0.5
976.702	0.5
977.429	1.5
978.156	1.5
978.882	0.5
979.609	2.5
980.335	-1.5
981.062	-0.5
981.788	-0.5
982.514	-0.5
983.24	-0.5
983.967	-0.5
984.693	1.5
985.419	-0.5
986.144	2.5
986.87	1.5
987.596	1.5
988.322	1.5
989.047	0.5
989.773	2.5
990.498	0.5
991.224	-1.5
991.949	0.5
992.674	0.5
993.399	1.5
994.124	1.5
994.849	2.5
995.574	-0.5
996.299	0.5
997.024	1.5
997.749	1.5
998.473	-0.5
999.198	-0.5
999.922	2.5
1000.647	1.5
1001.371	3.5
1002.095	-0.5
1002.82	-2.5
1003.544	0.5
1004.268	6.5
1004.992	2.5
1005.716	5.5
1006.439	6.5
1007.163	8.5
1007.887	5.5
1008.611	0.5
1009.334	1.5
1010.058	-0.5
1010.781	1.5
1011.504	1.5
1012.228	1.5
1012.951	1.5
1013.674	-0.5
1014.397	-1.5
1015.12	-0.5
