节点500_705_QEPB04081__564__20-53-56-771.txt的数据

Date: Wed Nov 12 20:53:56 CST 2025
User: PC
Spectrometer: QEPB0408
触发模式: 0
积分时间 (秒): 1.000000E-2
Scans to average: 1
启用暗噪声校正: true
启用非线性校正: false
滑动平均宽度: 0
X轴模式: Wavelengths
Number of Pixels in Spectrum: 1044
>>>>>Begin Spectral Data<<<<<
220.843	6
221.644	6
222.444	5
223.244	6
224.045	5
224.845	8
225.645	9
226.445	6
227.245	6
228.045	7
228.845	6
229.645	6
230.444	9
231.244	7
232.043	10
232.843	10
233.642	10
234.442	10
235.241	10
236.04	9
236.839	10
237.638	9
238.437	9
239.236	11
240.035	10
240.833	10
241.632	10
242.43	12
243.229	12
244.027	14
244.826	11
245.624	13
246.422	11
247.22	15
248.018	15
248.816	13
249.614	12
250.412	13
251.21	13
252.007	14
252.805	15
253.602	15
254.4	14
255.197	18
255.994	19
256.791	17
257.589	19
258.386	19
259.183	20
259.979	20
260.776	22
261.573	20
262.37	21
263.166	23
263.963	24
264.759	25
265.556	21
266.352	26
267.148	25
267.944	27
268.74	24
269.536	29
270.332	29
271.128	29
271.924	27
272.719	30
273.515	27
274.311	30
275.106	30
275.901	30
276.697	34
277.492	31
278.287	29
279.082	32
279.877	30
280.672	31
281.467	32
282.262	33
283.056	34
283.851	32
284.646	31
285.44	35
286.234	35
287.029	31
287.823	35
288.617	31
289.411	31
290.205	28
290.999	32
291.793	31
292.587	28
293.381	30
294.174	26
294.968	32
295.761	29
296.555	23
297.348	24
298.141	27
298.935	26
299.728	26
300.521	23
301.314	29
302.107	23
302.899	24
303.692	22
304.485	22
305.277	21
306.07	21
306.862	22
307.655	19
308.447	22
309.239	22
310.031	19
310.823	17
311.615	17
312.407	17
313.199	17
313.991	16
314.783	18
315.574	14
316.366	19
317.157	14
317.949	18
318.74	13
319.531	16
320.322	17
321.113	14
321.904	15
322.695	11
323.486	14
324.277	13
325.068	11
325.858	14
326.649	15
327.439	14
328.23	13
329.02	11
329.81	13
330.6	11
331.391	14
332.181	13
332.971	12
333.76	10
334.55	12
335.34	10
336.13	13
336.919	13
337.709	11
338.498	13
339.287	11
340.077	11
340.866	11
341.655	12
342.444	11
343.233	11
344.022	11
344.811	11
345.6	13
346.388	10
347.177	8
347.965	13
348.754	10
349.542	8
350.33	11
351.119	10
351.907	13
352.695	11
353.483	10
354.271	10
355.059	8
355.846	10
356.634	10
357.422	12
358.209	10
358.997	10
359.784	11
360.571	10
361.359	9
362.146	11
362.933	12
363.72	8
364.507	8
365.294	11
366.081	8
366.867	12
367.654	8
368.44	10
369.227	11
370.013	10
370.8	9
371.586	10
372.372	9
373.158	9
373.944	10
374.73	11
375.516	10
376.302	12
377.088	8
377.873	9
378.659	9
379.445	12
380.23	12
381.015	10
381.801	12
382.586	9
383.371	9
384.156	11
384.941	10
385.726	11
386.511	12
387.296	13
388.08	7
388.865	13
389.649	10
390.434	10
391.218	10
392.003	13
392.787	11
393.571	11
394.355	10
395.139	14
395.923	10
396.707	15
397.491	11
398.274	12
399.058	12
399.842	13
400.625	15
401.408	14
402.192	15
402.975	13
403.758	13
404.541	14
405.324	11
406.107	14
406.89	15
407.673	15
408.456	15
409.238	15
410.021	15
410.803	18
411.586	15
412.368	16
413.151	16
413.933	18
414.715	16
415.497	18
416.279	18
417.061	19
417.843	18
418.624	19
419.406	19
420.188	19
420.969	19
421.751	21
422.532	18
423.313	23
424.095	23
424.876	23
425.657	23
426.438	25
427.219	26
428	25
428.78	27
429.561	30
430.342	30
431.122	32
431.903	33
432.683	34
433.464	33
434.244	39
435.024	37
435.804	35
436.584	39
437.364	43
438.144	48
438.924	53
439.704	56
440.483	57
441.263	60
442.042	68
442.822	67
443.601	76
444.38	84
445.16	93
445.939	95
446.718	108
447.497	116
448.276	129
449.054	146
449.833	158
450.612	170
451.391	187
452.169	211
452.948	237
453.726	256
454.504	287
455.282	317
456.061	356
456.839	393
457.617	435
458.395	486
459.172	543
459.95	602
460.728	672
461.506	744
462.283	837
463.061	921
463.838	1031
464.615	1131
465.393	1267
466.17	1397
466.947	1551
467.724	1701
468.501	1880
469.278	2070
470.055	2262
470.831	2508
471.608	2756
472.385	3016
473.161	3326
473.938	3612
474.714	3978
475.49	4329
476.266	4723
477.043	5169
477.819	5624
478.595	6089
479.371	6601
480.146	7198
480.922	7798
481.698	8498
482.473	9148
483.249	9954
484.024	10738
484.8	11624
485.575	12524
486.35	13521
487.126	14531
487.901	15673
488.676	16854
489.451	18105
490.225	19458
491	20888
491.775	22225
492.55	23677
493.324	25281
494.099	26788
494.873	28489
495.647	30053
496.422	31649
497.196	33207
497.97	34825
498.744	36281
499.518	37835
500.292	39080
501.066	40226
501.839	41201
502.613	42097
503.387	42861
504.16	43490
504.934	43963
505.707	44101
506.48	43997
507.253	43826
508.027	43539
508.8	42881
509.573	42157
510.346	41388
511.118	40606
511.891	39486
512.664	38296
513.437	36997
514.209	35710
514.982	34529
515.754	33254
516.526	31979
517.298	30736
518.071	29612
518.843	28432
519.615	27283
520.387	26206
521.159	25180
521.93	24173
522.702	23174
523.474	22256
524.245	21331
525.017	20495
525.788	19604
526.56	18823
527.331	18026
528.102	17198
528.873	16341
529.644	15554
530.415	14829
531.186	14214
531.957	13476
532.728	12845
533.498	12100
534.269	11527
535.039	10920
535.81	10381
536.58	9839
537.351	9298
538.121	8856
538.891	8327
539.661	7887
540.431	7443
541.201	7088
541.971	6716
542.741	6361
543.51	6014
544.28	5765
545.05	5481
545.819	5203
546.588	4980
547.358	4756
548.127	4506
548.896	4299
549.665	4079
550.434	3848
551.203	3676
551.972	3492
552.741	3310
553.51	3106
554.278	2927
555.047	2778
555.815	2623
556.584	2483
557.352	2364
558.121	2233
558.889	2097
559.657	1998
560.425	1881
561.193	1787
561.961	1690
562.729	1610
563.496	1506
564.264	1430
565.032	1341
565.799	1279
566.567	1205
567.334	1142
568.101	1085
568.869	1024
569.636	967
570.403	906
571.17	849
571.937	813
572.704	771
573.471	729
574.237	681
575.004	632
575.771	604
576.537	569
577.303	543
578.07	510
578.836	485
579.602	456
580.368	434
581.134	413
581.9	390
582.666	373
583.432	358
584.198	338
584.964	315
585.729	305
586.495	285
587.26	270
588.025	259
588.791	250
589.556	235
590.321	219
591.086	203
591.851	196
592.616	191
593.381	179
594.146	175
594.911	160
595.675	161
596.44	152
597.204	146
597.969	138
598.733	129
599.497	127
600.261	121
601.025	116
601.79	110
602.553	104
603.317	101
604.081	97
604.845	93
605.609	85
606.372	85
607.136	83
607.899	79
608.662	75
609.426	76
610.189	67
610.952	66
611.715	66
612.478	65
613.241	62
614.004	61
614.767	54
615.529	53
616.292	52
617.055	48
617.817	50
618.579	50
619.342	47
620.104	47
620.866	42
621.628	41
622.39	38
623.152	35
623.914	39
624.676	38
625.438	38
626.199	35
626.961	36
627.722	27
628.484	32
629.245	28
630.006	31
630.768	27
631.529	28
632.29	25
633.051	25
633.812	27
634.573	25
635.333	26
636.094	21
636.855	24
637.615	22
638.376	22
639.136	19
639.896	20
640.657	21
641.417	18
642.177	20
642.937	18
643.697	19
644.457	17
645.216	18
645.976	18
646.736	17
647.495	16
648.255	17
649.014	16
649.774	16
650.533	14
651.292	14
652.051	14
652.81	11
653.569	15
654.328	13
655.087	13
655.846	11
656.604	11
657.363	13
658.121	11
658.88	13
659.638	13
660.397	11
661.155	14
661.913	11
662.671	13
663.429	14
664.187	11
664.945	11
665.703	11
666.46	11
667.218	12
667.976	13
668.733	10
669.49	8
670.248	9
671.005	11
671.762	9
672.519	9
673.276	9
674.033	7
674.79	9
675.547	10
676.304	9
677.06	8
677.817	8
678.574	9
679.33	7
680.086	9
680.843	7
681.599	9
682.355	8
683.111	7
683.867	8
684.623	9
685.379	6
686.135	8
686.89	4
687.646	9
688.402	6
689.157	5
689.912	9
690.668	5
691.423	7
692.178	6
692.933	9
693.688	10
694.443	6
695.198	9
695.953	6
696.708	9
697.462	5
698.217	7
698.972	5
699.726	6
700.48	7
701.235	6
701.989	8
702.743	8
703.497	6
704.251	8
705.005	6
705.759	7
706.513	7
707.266	8
708.02	6
708.774	7
709.527	9
710.28	9
711.034	8
711.787	8
712.54	6
713.293	7
714.046	7
714.799	8
715.552	8
716.305	7
717.058	9
717.81	8
718.563	7
719.315	8
720.068	8
720.82	7
721.573	7
722.325	9
723.077	7
723.829	7
724.581	7
725.333	8
726.085	8
726.836	8
727.588	9
728.34	8
729.091	8
729.843	9
730.594	10
731.346	8
732.097	6
732.848	9
733.599	8
734.35	8
735.101	8
735.852	8
736.603	9
737.354	8
738.104	7
738.855	9
739.605	10
740.356	9
741.106	10
741.856	11
742.607	8
743.357	11
744.107	10
744.857	8
745.607	13
746.357	10
747.106	11
747.856	10
748.606	11
749.355	11
750.105	10
750.854	11
751.603	11
752.353	12
753.102	10
753.851	9
754.6	11
755.349	9
756.098	12
756.847	9
757.595	11
758.344	9
759.093	11
759.841	10
760.589	13
761.338	11
762.086	10
762.834	14
763.582	13
764.331	13
765.079	9
765.826	11
766.574	13
767.322	12
768.07	11
768.817	15
769.565	12
770.312	13
771.06	14
771.807	13
772.554	15
773.302	12
774.049	13
774.796	13
775.543	13
776.29	14
777.036	16
777.783	15
778.53	15
779.276	15
780.023	13
780.769	14
781.516	15
782.262	15
783.008	13
783.754	15
784.5	15
785.246	15
785.992	15
786.738	16
787.484	14
788.23	15
788.975	13
789.721	16
790.466	13
791.212	14
791.957	14
792.702	15
793.447	13
794.193	15
794.938	16
795.683	14
796.427	13
797.172	13
797.917	10
798.662	11
799.406	10
800.151	11
800.895	13
801.64	10
802.384	12
803.128	11
803.872	9
804.616	11
805.36	11
806.104	12
806.848	8
807.592	10
808.336	11
809.079	11
809.823	11
810.566	9
811.31	8
812.053	7
812.796	10
813.539	8
814.283	8
815.026	11
815.769	9
816.511	10
817.254	5
817.997	9
818.74	11
819.482	7
820.225	8
820.967	10
821.71	7
822.452	6
823.194	9
823.936	7
824.678	6
825.42	5
826.162	6
826.904	10
827.646	7
828.388	6
829.129	7
829.871	9
830.612	7
831.354	8
832.095	5
832.836	7
833.577	6
834.319	8
835.06	8
835.801	6
836.542	6
837.282	6
838.023	5
838.764	8
839.504	6
840.245	6
840.985	7
841.726	7
842.466	5
843.206	7
843.946	6
844.687	5
845.427	3
846.166	6
846.906	4
847.646	6
848.386	5
849.125	6
849.865	8
850.605	5
851.344	7
852.083	4
852.823	4
853.562	5
854.301	4
855.04	4
855.779	5
856.518	4
857.257	5
857.995	5
858.734	5
859.473	3
860.211	4
860.95	5
861.688	6
862.426	3
863.165	2
863.903	4
864.641	3
865.379	2
866.117	2
866.855	4
867.593	3
868.33	3
869.068	1
869.806	3
870.543	1
871.28	4
872.018	2
872.755	3
873.492	3
874.229	1
874.967	3
875.703	2
876.44	0
877.177	2
877.914	3
878.651	3
879.387	3
880.124	3
880.86	0
881.597	2
882.333	2
883.069	1
883.806	4
884.542	2
885.278	3
886.014	1
886.749	2
887.485	2
888.221	1
888.957	3
889.692	2
890.428	2
891.163	1
891.899	2
892.634	2
893.369	2
894.104	2
894.839	1
895.574	2
896.309	2
897.044	1
897.779	1
898.514	1
899.248	2
899.983	3
900.717	2
901.452	1
902.186	0
902.92	1
903.654	0
904.389	0
905.123	4
905.857	1
906.59	0
907.324	-1
908.058	3
908.792	1
909.525	1
910.259	1
910.992	-1
911.726	1
912.459	0
913.192	0
913.925	2
914.658	-1
915.391	2
916.124	1
916.857	0
917.59	1
918.323	0
919.055	0
919.788	0
920.521	2
921.253	2
921.985	2
922.718	1
923.45	3
924.182	1
924.914	-1
925.646	0
926.378	-1
927.11	2
927.841	0
928.573	1
929.305	0
930.036	0
930.768	2
931.499	0
932.23	1
932.962	1
933.693	0
934.424	2
935.155	1
935.886	0
936.617	0
937.348	1
938.078	0
938.809	0
939.54	2
940.27	1
941.001	2
941.731	-2
942.461	2
943.191	-1
943.922	1
944.652	0
945.382	1
946.112	2
946.841	1
947.571	1
948.301	2
949.031	-1
949.76	1
950.49	0
951.219	2
951.948	-1
952.678	-1
953.407	1
954.136	0
954.865	-1
955.594	-2
956.323	-1
957.052	0
957.78	-1
958.509	3
959.238	-2
959.966	0
960.695	-1
961.423	-1
962.151	0
962.88	1
963.608	2
964.336	1
965.064	0
965.792	1
966.52	1
967.247	1
967.975	0
968.703	0
969.43	1
970.158	1
970.885	0
971.613	0
972.34	1
973.067	-1
973.794	0
974.521	0
975.248	-1
975.975	1
976.702	0
977.429	-1
978.156	1
978.882	1
979.609	1
980.335	-1
981.062	-1
981.788	0
982.514	1
983.24	2
983.967	0
984.693	-2
985.419	-2
986.144	1
986.87	-2
987.596	1
988.322	-1
989.047	0
989.773	1
990.498	2
991.224	0
991.949	-1
992.674	-1
993.399	2
994.124	0
994.849	-1
995.574	-1
996.299	2
997.024	-3
997.749	0
998.473	1
999.198	2
999.922	1
1000.647	2
1001.371	2
1002.095	-1
1002.82	-1
1003.544	-1
1004.268	5
1004.992	5
1005.716	4
1006.439	3
1007.163	6
1007.887	7
1008.611	2
1009.334	0
1010.058	3
1010.781	1
1011.504	0
1012.228	1
1012.951	-1
1013.674	0
1014.397	1
1015.12	1
