节点500_705_QEPB04081__540__20-53-36-722.txt的数据

Date: Wed Nov 12 20:53:36 CST 2025
User: PC
Spectrometer: QEPB0408
触发模式: 0
积分时间 (秒): 1.000000E-2
Scans to average: 1
启用暗噪声校正: true
启用非线性校正: false
滑动平均宽度: 0
X轴模式: Wavelengths
Number of Pixels in Spectrum: 1044
>>>>>Begin Spectral Data<<<<<
220.843	3.5
221.644	7.5
222.444	5.5
223.244	7.5
224.045	7.5
224.845	5.5
225.645	5.5
226.445	8.5
227.245	4.5
228.045	9.5
228.845	7.5
229.645	8.5
230.444	6.5
231.244	9.5
232.043	8.5
232.843	8.5
233.642	9.5
234.442	11.5
235.241	11.5
236.04	6.5
236.839	11.5
237.638	9.5
238.437	10.5
239.236	10.5
240.035	10.5
240.833	9.5
241.632	10.5
242.43	11.5
243.229	13.5
244.027	10.5
244.826	11.5
245.624	14.5
246.422	13.5
247.22	12.5
248.018	13.5
248.816	10.5
249.614	15.5
250.412	14.5
251.21	14.5
252.007	15.5
252.805	16.5
253.602	17.5
254.4	15.5
255.197	15.5
255.994	19.5
256.791	19.5
257.589	22.5
258.386	18.5
259.183	18.5
259.979	22.5
260.776	18.5
261.573	21.5
262.37	22.5
263.166	23.5
263.963	22.5
264.759	24.5
265.556	22.5
266.352	23.5
267.148	25.5
267.944	28.5
268.74	27.5
269.536	28.5
270.332	26.5
271.128	27.5
271.924	29.5
272.719	29.5
273.515	27.5
274.311	29.5
275.106	31.5
275.901	26.5
276.697	31.5
277.492	31.5
278.287	27.5
279.082	33.5
279.877	30.5
280.672	33.5
281.467	30.5
282.262	33.5
283.056	31.5
283.851	33.5
284.646	29.5
285.44	30.5
286.234	30.5
287.029	29.5
287.823	31.5
288.617	31.5
289.411	31.5
290.205	31.5
290.999	30.5
291.793	31.5
292.587	31.5
293.381	26.5
294.174	29.5
294.968	28.5
295.761	24.5
296.555	24.5
297.348	26.5
298.141	27.5
298.935	28.5
299.728	26.5
300.521	25.5
301.314	26.5
302.107	23.5
302.899	22.5
303.692	23.5
304.485	21.5
305.277	20.5
306.07	20.5
306.862	24.5
307.655	19.5
308.447	20.5
309.239	18.5
310.031	19.5
310.823	20.5
311.615	20.5
312.407	19.5
313.199	17.5
313.991	15.5
314.783	18.5
315.574	17.5
316.366	19.5
317.157	18.5
317.949	16.5
318.74	17.5
319.531	15.5
320.322	14.5
321.113	15.5
321.904	12.5
322.695	15.5
323.486	11.5
324.277	12.5
325.068	12.5
325.858	12.5
326.649	13.5
327.439	12.5
328.23	13.5
329.02	10.5
329.81	13.5
330.6	11.5
331.391	12.5
332.181	11.5
332.971	11.5
333.76	13.5
334.55	11.5
335.34	11.5
336.13	13.5
336.919	12.5
337.709	12.5
338.498	11.5
339.287	11.5
340.077	8.5
340.866	11.5
341.655	11.5
342.444	9.5
343.233	12.5
344.022	12.5
344.811	10.5
345.6	10.5
346.388	13.5
347.177	11.5
347.965	14.5
348.754	12.5
349.542	11.5
350.33	12.5
351.119	12.5
351.907	8.5
352.695	12.5
353.483	12.5
354.271	11.5
355.059	10.5
355.846	9.5
356.634	7.5
357.422	9.5
358.209	11.5
358.997	11.5
359.784	9.5
360.571	11.5
361.359	10.5
362.146	9.5
362.933	8.5
363.72	9.5
364.507	11.5
365.294	9.5
366.081	8.5
366.867	9.5
367.654	11.5
368.44	8.5
369.227	11.5
370.013	11.5
370.8	7.5
371.586	10.5
372.372	7.5
373.158	10.5
373.944	9.5
374.73	11.5
375.516	9.5
376.302	7.5
377.088	11.5
377.873	9.5
378.659	10.5
379.445	7.5
380.23	9.5
381.015	9.5
381.801	7.5
382.586	11.5
383.371	10.5
384.156	13.5
384.941	13.5
385.726	8.5
386.511	11.5
387.296	10.5
388.08	10.5
388.865	10.5
389.649	8.5
390.434	11.5
391.218	9.5
392.003	10.5
392.787	10.5
393.571	11.5
394.355	11.5
395.139	13.5
395.923	10.5
396.707	10.5
397.491	13.5
398.274	12.5
399.058	12.5
399.842	16.5
400.625	13.5
401.408	13.5
402.192	13.5
402.975	14.5
403.758	13.5
404.541	13.5
405.324	13.5
406.107	12.5
406.89	15.5
407.673	13.5
408.456	13.5
409.238	17.5
410.021	16.5
410.803	15.5
411.586	15.5
412.368	15.5
413.151	15.5
413.933	17.5
414.715	19.5
415.497	20.5
416.279	16.5
417.061	17.5
417.843	18.5
418.624	19.5
419.406	21.5
420.188	21.5
420.969	19.5
421.751	20.5
422.532	19.5
423.313	23.5
424.095	23.5
424.876	24.5
425.657	24.5
426.438	26.5
427.219	24.5
428	28.5
428.78	27.5
429.561	31.5
430.342	33.5
431.122	31.5
431.903	35.5
432.683	35.5
433.464	39.5
434.244	36.5
435.024	37.5
435.804	39.5
436.584	40.5
437.364	45.5
438.144	51.5
438.924	51.5
439.704	54.5
440.483	63.5
441.263	63.5
442.042	67.5
442.822	68.5
443.601	76.5
444.38	84.5
445.16	92.5
445.939	101.5
446.718	109.5
447.497	114.5
448.276	126.5
449.054	133.5
449.833	150.5
450.612	172.5
451.391	188.5
452.169	210.5
452.948	234.5
453.726	253.5
454.504	289.5
455.282	319.5
456.061	345.5
456.839	387.5
457.617	437.5
458.395	483.5
459.172	537.5
459.95	593.5
460.728	676.5
461.506	742.5
462.283	823.5
463.061	907.5
463.838	1014.5
464.615	1134.5
465.393	1245.5
466.17	1387.5
466.947	1539.5
467.724	1715.5
468.501	1862.5
469.278	2059.5
470.055	2282.5
470.831	2505.5
471.608	2749.5
472.385	3051.5
473.161	3325.5
473.938	3607.5
474.714	3968.5
475.49	4349.5
476.266	4737.5
477.043	5160.5
477.819	5601.5
478.595	6102.5
479.371	6645.5
480.146	7190.5
480.922	7839.5
481.698	8526.5
482.473	9220.5
483.249	9984.5
484.024	10805.5
484.8	11690.5
485.575	12588.5
486.35	13615.5
487.126	14649.5
487.901	15816.5
488.676	17006.5
489.451	18340.5
490.225	19618.5
491	20985.5
491.775	22409.5
492.55	23980.5
493.324	25531.5
494.099	27082.5
494.873	28709.5
495.647	30276.5
496.422	31890.5
497.196	33585.5
497.97	35119.5
498.744	36536.5
499.518	38068.5
500.292	39395.5
501.066	40496.5
501.839	41501.5
502.613	42392.5
503.387	43244.5
504.16	43769.5
504.934	44125.5
505.707	44319.5
506.48	44231.5
507.253	44034.5
508.027	43559.5
508.8	42947.5
509.573	42267.5
510.346	41435.5
511.118	40717.5
511.891	39627.5
512.664	38230.5
513.437	37015.5
514.209	35776.5
514.982	34542.5
515.754	33233.5
516.526	31943.5
517.298	30649.5
518.071	29596.5
518.843	28451.5
519.615	27229.5
520.387	26200.5
521.159	25136.5
521.93	24171.5
522.702	23142.5
523.474	22205.5
524.245	21301.5
525.017	20362.5
525.788	19623.5
526.56	18752.5
527.331	17985.5
528.102	17097.5
528.873	16269.5
529.644	15536.5
530.415	14864.5
531.186	14157.5
531.957	13442.5
532.728	12774.5
533.498	12148.5
534.269	11522.5
535.039	10905.5
535.81	10284.5
536.58	9761.5
537.351	9223.5
538.121	8774.5
538.891	8312.5
539.661	7847.5
540.431	7409.5
541.201	7071.5
541.971	6719.5
542.741	6318.5
543.51	6018.5
544.28	5728.5
545.05	5436.5
545.819	5211.5
546.588	4957.5
547.358	4714.5
548.127	4488.5
548.896	4250.5
549.665	4044.5
550.434	3854.5
551.203	3639.5
551.972	3451.5
552.741	3289.5
553.51	3103.5
554.278	2899.5
555.047	2743.5
555.815	2630.5
556.584	2475.5
557.352	2329.5
558.121	2209.5
558.889	2083.5
559.657	1972.5
560.425	1885.5
561.193	1780.5
561.961	1670.5
562.729	1597.5
563.496	1511.5
564.264	1425.5
565.032	1340.5
565.799	1271.5
566.567	1190.5
567.334	1137.5
568.101	1079.5
568.869	1008.5
569.636	953.5
570.403	899.5
571.17	843.5
571.937	811.5
572.704	767.5
573.471	715.5
574.237	681.5
575.004	645.5
575.771	600.5
576.537	564.5
577.303	537.5
578.07	510.5
578.836	480.5
579.602	446.5
580.368	431.5
581.134	416.5
581.9	389.5
582.666	367.5
583.432	355.5
584.198	342.5
584.964	313.5
585.729	304.5
586.495	286.5
587.26	264.5
588.025	261.5
588.791	245.5
589.556	226.5
590.321	219.5
591.086	208.5
591.851	195.5
592.616	192.5
593.381	176.5
594.146	169.5
594.911	159.5
595.675	155.5
596.44	146.5
597.204	142.5
597.969	131.5
598.733	127.5
599.497	121.5
600.261	121.5
601.025	114.5
601.79	114.5
602.553	105.5
603.317	105.5
604.081	92.5
604.845	89.5
605.609	85.5
606.372	84.5
607.136	82.5
607.899	76.5
608.662	76.5
609.426	74.5
610.189	73.5
610.952	67.5
611.715	65.5
612.478	63.5
613.241	60.5
614.004	60.5
614.767	55.5
615.529	53.5
616.292	53.5
617.055	50.5
617.817	49.5
618.579	46.5
619.342	47.5
620.104	46.5
620.866	45.5
621.628	43.5
622.39	41.5
623.152	39.5
623.914	38.5
624.676	31.5
625.438	37.5
626.199	33.5
626.961	35.5
627.722	30.5
628.484	31.5
629.245	28.5
630.006	31.5
630.768	27.5
631.529	28.5
632.29	28.5
633.051	26.5
633.812	26.5
634.573	26.5
635.333	26.5
636.094	26.5
636.855	22.5
637.615	23.5
638.376	18.5
639.136	19.5
639.896	20.5
640.657	18.5
641.417	19.5
642.177	18.5
642.937	18.5
643.697	18.5
644.457	18.5
645.216	16.5
645.976	16.5
646.736	17.5
647.495	15.5
648.255	15.5
649.014	14.5
649.774	15.5
650.533	13.5
651.292	14.5
652.051	12.5
652.81	15.5
653.569	14.5
654.328	12.5
655.087	11.5
655.846	15.5
656.604	13.5
657.363	12.5
658.121	11.5
658.88	11.5
659.638	11.5
660.397	11.5
661.155	13.5
661.913	12.5
662.671	11.5
663.429	11.5
664.187	11.5
664.945	11.5
665.703	8.5
666.46	10.5
667.218	9.5
667.976	9.5
668.733	11.5
669.49	11.5
670.248	12.5
671.005	7.5
671.762	9.5
672.519	10.5
673.276	10.5
674.033	8.5
674.79	10.5
675.547	10.5
676.304	6.5
677.06	7.5
677.817	8.5
678.574	10.5
679.33	7.5
680.086	8.5
680.843	10.5
681.599	9.5
682.355	8.5
683.111	10.5
683.867	6.5
684.623	9.5
685.379	9.5
686.135	8.5
686.89	11.5
687.646	7.5
688.402	10.5
689.157	9.5
689.912	5.5
690.668	7.5
691.423	8.5
692.178	7.5
692.933	8.5
693.688	7.5
694.443	7.5
695.198	7.5
695.953	9.5
696.708	7.5
697.462	8.5
698.217	6.5
698.972	10.5
699.726	8.5
700.48	7.5
701.235	7.5
701.989	6.5
702.743	9.5
703.497	7.5
704.251	7.5
705.005	8.5
705.759	7.5
706.513	9.5
707.266	8.5
708.02	7.5
708.774	9.5
709.527	7.5
710.28	7.5
711.034	6.5
711.787	9.5
712.54	7.5
713.293	9.5
714.046	8.5
714.799	8.5
715.552	6.5
716.305	5.5
717.058	7.5
717.81	7.5
718.563	9.5
719.315	7.5
720.068	7.5
720.82	8.5
721.573	7.5
722.325	7.5
723.077	6.5
723.829	6.5
724.581	7.5
725.333	9.5
726.085	9.5
726.836	10.5
727.588	8.5
728.34	7.5
729.091	7.5
729.843	7.5
730.594	7.5
731.346	10.5
732.097	12.5
732.848	9.5
733.599	8.5
734.35	10.5
735.101	8.5
735.852	7.5
736.603	9.5
737.354	9.5
738.104	11.5
738.855	10.5
739.605	7.5
740.356	11.5
741.106	9.5
741.856	8.5
742.607	10.5
743.357	10.5
744.107	7.5
744.857	9.5
745.607	11.5
746.357	8.5
747.106	11.5
747.856	8.5
748.606	11.5
749.355	10.5
750.105	10.5
750.854	11.5
751.603	10.5
752.353	8.5
753.102	11.5
753.851	9.5
754.6	11.5
755.349	11.5
756.098	10.5
756.847	14.5
757.595	10.5
758.344	13.5
759.093	9.5
759.841	12.5
760.589	13.5
761.338	9.5
762.086	11.5
762.834	12.5
763.582	13.5
764.331	11.5
765.079	14.5
765.826	13.5
766.574	13.5
767.322	11.5
768.07	14.5
768.817	14.5
769.565	15.5
770.312	13.5
771.06	11.5
771.807	14.5
772.554	13.5
773.302	12.5
774.049	15.5
774.796	13.5
775.543	11.5
776.29	16.5
777.036	11.5
777.783	15.5
778.53	15.5
779.276	15.5
780.023	15.5
780.769	14.5
781.516	14.5
782.262	14.5
783.008	12.5
783.754	14.5
784.5	13.5
785.246	13.5
785.992	12.5
786.738	15.5
787.484	14.5
788.23	15.5
788.975	14.5
789.721	14.5
790.466	13.5
791.212	13.5
791.957	15.5
792.702	15.5
793.447	13.5
794.193	14.5
794.938	13.5
795.683	13.5
796.427	10.5
797.172	14.5
797.917	12.5
798.662	12.5
799.406	13.5
800.151	12.5
800.895	12.5
801.64	11.5
802.384	10.5
803.128	11.5
803.872	7.5
804.616	12.5
805.36	9.5
806.104	10.5
806.848	11.5
807.592	8.5
808.336	10.5
809.079	10.5
809.823	13.5
810.566	9.5
811.31	8.5
812.053	9.5
812.796	10.5
813.539	8.5
814.283	8.5
815.026	8.5
815.769	8.5
816.511	9.5
817.254	11.5
817.997	9.5
818.74	6.5
819.482	8.5
820.225	7.5
820.967	9.5
821.71	7.5
822.452	8.5
823.194	6.5
823.936	8.5
824.678	7.5
825.42	9.5
826.162	6.5
826.904	9.5
827.646	7.5
828.388	6.5
829.129	5.5
829.871	6.5
830.612	6.5
831.354	6.5
832.095	5.5
832.836	6.5
833.577	4.5
834.319	5.5
835.06	6.5
835.801	7.5
836.542	9.5
837.282	6.5
838.023	7.5
838.764	7.5
839.504	6.5
840.245	6.5
840.985	4.5
841.726	5.5
842.466	6.5
843.206	6.5
843.946	6.5
844.687	8.5
845.427	4.5
846.166	3.5
846.906	4.5
847.646	3.5
848.386	5.5
849.125	3.5
849.865	5.5
850.605	5.5
851.344	3.5
852.083	6.5
852.823	7.5
853.562	4.5
854.301	6.5
855.04	5.5
855.779	2.5
856.518	6.5
857.257	6.5
857.995	2.5
858.734	5.5
859.473	6.5
860.211	3.5
860.95	5.5
861.688	1.5
862.426	3.5
863.165	1.5
863.903	2.5
864.641	1.5
865.379	3.5
866.117	3.5
866.855	5.5
867.593	1.5
868.33	3.5
869.068	3.5
869.806	5.5
870.543	3.5
871.28	4.5
872.018	2.5
872.755	2.5
873.492	3.5
874.229	2.5
874.967	4.5
875.703	3.5
876.44	2.5
877.177	0.5
877.914	2.5
878.651	3.5
879.387	-0.5
880.124	2.5
880.86	2.5
881.597	2.5
882.333	1.5
883.069	1.5
883.806	3.5
884.542	1.5
885.278	3.5
886.014	1.5
886.749	1.5
887.485	1.5
888.221	2.5
888.957	1.5
889.692	1.5
890.428	1.5
891.163	3.5
891.899	2.5
892.634	0.5
893.369	0.5
894.104	3.5
894.839	1.5
895.574	1.5
896.309	2.5
897.044	0.5
897.779	2.5
898.514	2.5
899.248	2.5
899.983	2.5
900.717	3.5
901.452	2.5
902.186	1.5
902.92	1.5
903.654	2.5
904.389	2.5
905.123	3.5
905.857	0.5
906.59	2.5
907.324	1.5
908.058	1.5
908.792	2.5
909.525	-0.5
910.259	1.5
910.992	1.5
911.726	0.5
912.459	1.5
913.192	-0.5
913.925	-0.5
914.658	-0.5
915.391	1.5
916.124	0.5
916.857	1.5
917.59	0.5
918.323	-0.5
919.055	2.5
919.788	0.5
920.521	3.5
921.253	1.5
921.985	1.5
922.718	2.5
923.45	-0.5
924.182	1.5
924.914	-0.5
925.646	2.5
926.378	-1.5
927.11	0.5
927.841	0.5
928.573	-1.5
929.305	0.5
930.036	1.5
930.768	-0.5
931.499	2.5
932.23	-1.5
932.962	1.5
933.693	-2.5
934.424	2.5
935.155	1.5
935.886	2.5
936.617	-0.5
937.348	-0.5
938.078	1.5
938.809	0.5
939.54	1.5
940.27	2.5
941.001	1.5
941.731	2.5
942.461	1.5
943.191	0.5
943.922	2.5
944.652	-0.5
945.382	4.5
946.112	-0.5
946.841	-0.5
947.571	-0.5
948.301	1.5
949.031	2.5
949.76	2.5
950.49	1.5
951.219	0.5
951.948	-0.5
952.678	1.5
953.407	2.5
954.136	2.5
954.865	1.5
955.594	1.5
956.323	2.5
957.052	0.5
957.78	0.5
958.509	1.5
959.238	-0.5
959.966	-1.5
960.695	0.5
961.423	-0.5
962.151	0.5
962.88	1.5
963.608	0.5
964.336	2.5
965.064	1.5
965.792	0.5
966.52	0.5
967.247	0.5
967.975	-0.5
968.703	0.5
969.43	1.5
970.158	2.5
970.885	2.5
971.613	4.5
972.34	0.5
973.067	1.5
973.794	1.5
974.521	0.5
975.248	0.5
975.975	2.5
976.702	0.5
977.429	0.5
978.156	-0.5
978.882	-2.5
979.609	0.5
980.335	0.5
981.062	0.5
981.788	-1.5
982.514	1.5
983.24	1.5
983.967	0.5
984.693	2.5
985.419	-1.5
986.144	-0.5
986.87	1.5
987.596	0.5
988.322	1.5
989.047	1.5
989.773	0.5
990.498	-1.5
991.224	0.5
991.949	-0.5
992.674	1.5
993.399	1.5
994.124	0.5
994.849	-0.5
995.574	1.5
996.299	0.5
997.024	3.5
997.749	1.5
998.473	0.5
999.198	2.5
999.922	-0.5
1000.647	1.5
1001.371	3.5
1002.095	-1.5
1002.82	-2.5
1003.544	-1.5
1004.268	4.5
1004.992	4.5
1005.716	6.5
1006.439	3.5
1007.163	6.5
1007.887	5.5
1008.611	0.5
1009.334	0.5
1010.058	1.5
1010.781	1.5
1011.504	1.5
1012.228	0.5
1012.951	1.5
1013.674	-0.5
1014.397	1.5
1015.12	-0.5
