节点500_705_QEPB04081__271__20-49-49-427.txt的数据

Date: Wed Nov 12 20:49:49 CST 2025
User: PC
Spectrometer: QEPB0408
触发模式: 0
积分时间 (秒): 1.000000E-2
Scans to average: 1
启用暗噪声校正: true
启用非线性校正: false
滑动平均宽度: 0
X轴模式: Wavelengths
Number of Pixels in Spectrum: 1044
>>>>>Begin Spectral Data<<<<<
220.843	6
221.644	6
222.444	6
223.244	6
224.045	6
224.845	6
225.645	8
226.445	5
227.245	6
228.045	5
228.845	7
229.645	8
230.444	9
231.244	9
232.043	10
232.843	11
233.642	8
234.442	8
235.241	7
236.04	11
236.839	11
237.638	11
238.437	11
239.236	12
240.035	10
240.833	11
241.632	13
242.43	12
243.229	17
244.027	13
244.826	13
245.624	13
246.422	15
247.22	14
248.018	16
248.816	18
249.614	18
250.412	16
251.21	15
252.007	17
252.805	17
253.602	20
254.4	18
255.197	17
255.994	21
256.791	19
257.589	20
258.386	21
259.183	20
259.979	21
260.776	25
261.573	24
262.37	24
263.166	27
263.963	26
264.759	29
265.556	27
266.352	30
267.148	30
267.944	31
268.74	29
269.536	34
270.332	31
271.128	35
271.924	31
272.719	34
273.515	32
274.311	34
275.106	35
275.901	32
276.697	34
277.492	34
278.287	33
279.082	35
279.877	37
280.672	35
281.467	34
282.262	38
283.056	37
283.851	33
284.646	38
285.44	34
286.234	32
287.029	34
287.823	34
288.617	31
289.411	31
290.205	36
290.999	31
291.793	30
292.587	33
293.381	31
294.174	30
294.968	27
295.761	30
296.555	27
297.348	23
298.141	28
298.935	28
299.728	26
300.521	26
301.314	27
302.107	25
302.899	24
303.692	23
304.485	21
305.277	24
306.07	23
306.862	22
307.655	24
308.447	22
309.239	24
310.031	21
310.823	22
311.615	18
312.407	18
313.199	17
313.991	16
314.783	17
315.574	15
316.366	16
317.157	18
317.949	14
318.74	16
319.531	11
320.322	15
321.113	14
321.904	14
322.695	11
323.486	12
324.277	15
325.068	14
325.858	11
326.649	11
327.439	14
328.23	13
329.02	14
329.81	13
330.6	14
331.391	13
332.181	13
332.971	12
333.76	16
334.55	13
335.34	14
336.13	12
336.919	14
337.709	12
338.498	10
339.287	11
340.077	10
340.866	13
341.655	12
342.444	10
343.233	12
344.022	9
344.811	13
345.6	13
346.388	12
347.177	15
347.965	11
348.754	12
349.542	12
350.33	12
351.119	11
351.907	9
352.695	12
353.483	8
354.271	11
355.059	11
355.846	10
356.634	11
357.422	8
358.209	13
358.997	10
359.784	12
360.571	9
361.359	9
362.146	11
362.933	9
363.72	11
364.507	11
365.294	9
366.081	11
366.867	10
367.654	11
368.44	9
369.227	9
370.013	10
370.8	11
371.586	11
372.372	8
373.158	11
373.944	12
374.73	8
375.516	11
376.302	9
377.088	12
377.873	11
378.659	12
379.445	7
380.23	11
381.015	8
381.801	11
382.586	9
383.371	11
384.156	14
384.941	13
385.726	11
386.511	13
387.296	10
388.08	13
388.865	13
389.649	11
390.434	13
391.218	9
392.003	12
392.787	14
393.571	12
394.355	12
395.139	12
395.923	12
396.707	13
397.491	12
398.274	12
399.058	14
399.842	12
400.625	14
401.408	15
402.192	15
402.975	13
403.758	15
404.541	16
405.324	16
406.107	16
406.89	17
407.673	14
408.456	17
409.238	17
410.021	17
410.803	15
411.586	19
412.368	15
413.151	20
413.933	18
414.715	18
415.497	18
416.279	20
417.061	21
417.843	20
418.624	22
419.406	21
420.188	20
420.969	21
421.751	22
422.532	24
423.313	22
424.095	25
424.876	24
425.657	27
426.438	26
427.219	27
428	24
428.78	29
429.561	30
430.342	29
431.122	30
431.903	32
432.683	32
433.464	33
434.244	34
435.024	38
435.804	40
436.584	46
437.364	43
438.144	47
438.924	53
439.704	54
440.483	56
441.263	60
442.042	60
442.822	69
443.601	72
444.38	81
445.16	89
445.939	92
446.718	99
447.497	107
448.276	121
449.054	130
449.833	141
450.612	160
451.391	174
452.169	191
452.948	218
453.726	236
454.504	265
455.282	292
456.061	323
456.839	352
457.617	406
458.395	443
459.172	508
459.95	556
460.728	618
461.506	701
462.283	776
463.061	871
463.838	963
464.615	1078
465.393	1193
466.17	1347
466.947	1495
467.724	1642
468.501	1839
469.278	2051
470.055	2240
470.831	2493
471.608	2742
472.385	3019
473.161	3340
473.938	3677
474.714	4051
475.49	4485
476.266	4887
477.043	5354
477.819	5849
478.595	6397
479.371	7003
480.146	7653
480.922	8352
481.698	9139
482.473	9970
483.249	10842
484.024	11789
484.8	12765
485.575	13871
486.35	15048
487.126	16326
487.901	17617
488.676	18960
489.451	20568
490.225	22122
491	23793
491.775	25396
492.55	27182
493.324	28909
494.099	30780
494.873	32596
495.647	34370
496.422	36147
497.196	37974
497.97	39703
498.744	41177
499.518	42871
500.292	44011
501.066	45273
501.839	46055
502.613	46762
503.387	47358
504.16	47717
504.934	47931
505.707	47681
506.48	47193
507.253	46720
508.027	45827
508.8	44854
509.573	43846
510.346	42686
511.118	41635
511.891	40342
512.664	38760
513.437	37247
514.209	35834
514.982	34452
515.754	33003
516.526	31611
517.298	30420
518.071	29134
518.843	27987
519.615	26882
520.387	25828
521.159	24770
521.93	23714
522.702	22790
523.474	21791
524.245	20918
525.017	19877
525.788	19044
526.56	18280
527.331	17397
528.102	16497
528.873	15666
529.644	14976
530.415	14260
531.186	13568
531.957	12879
532.728	12199
533.498	11549
534.269	10883
535.039	10278
535.81	9769
536.58	9226
537.351	8717
538.121	8304
538.891	7865
539.661	7426
540.431	6995
541.201	6641
541.971	6325
542.741	5994
543.51	5667
544.28	5400
545.05	5143
545.819	4917
546.588	4668
547.358	4443
548.127	4240
548.896	4010
549.665	3810
550.434	3598
551.203	3411
551.972	3259
552.741	3068
553.51	2891
554.278	2740
555.047	2582
555.815	2437
556.584	2316
557.352	2202
558.121	2064
558.889	1933
559.657	1832
560.425	1741
561.193	1650
561.961	1565
562.729	1472
563.496	1374
564.264	1302
565.032	1237
565.799	1173
566.567	1122
567.334	1055
568.101	1000
568.869	947
569.636	888
570.403	837
571.17	793
571.937	744
572.704	708
573.471	682
574.237	636
575.004	590
575.771	556
576.537	522
577.303	498
578.07	478
578.836	438
579.602	421
580.368	399
581.134	382
581.9	362
582.666	345
583.432	319
584.198	317
584.964	289
585.729	277
586.495	260
587.26	253
588.025	235
588.791	223
589.556	207
590.321	201
591.086	194
591.851	190
592.616	175
593.381	167
594.146	160
594.911	153
595.675	141
596.44	140
597.204	133
597.969	121
598.733	120
599.497	118
600.261	114
601.025	108
601.79	107
602.553	97
603.317	95
604.081	92
604.845	85
605.609	82
606.372	80
607.136	78
607.899	73
608.662	71
609.426	68
610.189	67
610.952	65
611.715	63
612.478	58
613.241	59
614.004	52
614.767	55
615.529	51
616.292	51
617.055	46
617.817	42
618.579	47
619.342	44
620.104	42
620.866	44
621.628	42
622.39	37
623.152	38
623.914	32
624.676	34
625.438	33
626.199	32
626.961	30
627.722	29
628.484	34
629.245	30
630.006	29
630.768	29
631.529	26
632.29	25
633.051	27
633.812	23
634.573	21
635.333	25
636.094	21
636.855	21
637.615	20
638.376	23
639.136	19
639.896	19
640.657	19
641.417	15
642.177	19
642.937	20
643.697	16
644.457	18
645.216	18
645.976	18
646.736	15
647.495	15
648.255	13
649.014	16
649.774	18
650.533	14
651.292	14
652.051	14
652.81	15
653.569	11
654.328	12
655.087	13
655.846	13
656.604	15
657.363	10
658.121	10
658.88	11
659.638	11
660.397	12
661.155	10
661.913	10
662.671	12
663.429	11
664.187	11
664.945	11
665.703	11
666.46	10
667.218	11
667.976	10
668.733	10
669.49	13
670.248	11
671.005	9
671.762	10
672.519	10
673.276	12
674.033	10
674.79	9
675.547	8
676.304	8
677.06	7
677.817	9
678.574	7
679.33	10
680.086	12
680.843	10
681.599	7
682.355	8
683.111	9
683.867	9
684.623	4
685.379	8
686.135	8
686.89	7
687.646	8
688.402	10
689.157	8
689.912	6
690.668	9
691.423	7
692.178	7
692.933	10
693.688	11
694.443	5
695.198	8
695.953	8
696.708	9
697.462	7
698.217	8
698.972	7
699.726	8
700.48	9
701.235	6
701.989	8
702.743	9
703.497	7
704.251	10
705.005	6
705.759	8
706.513	8
707.266	9
708.02	8
708.774	8
709.527	8
710.28	6
711.034	8
711.787	7
712.54	8
713.293	7
714.046	7
714.799	8
715.552	8
716.305	9
717.058	5
717.81	8
718.563	7
719.315	8
720.068	9
720.82	8
721.573	6
722.325	11
723.077	9
723.829	9
724.581	7
725.333	10
726.085	7
726.836	8
727.588	7
728.34	10
729.091	9
729.843	10
730.594	8
731.346	10
732.097	9
732.848	8
733.599	8
734.35	9
735.101	10
735.852	11
736.603	10
737.354	7
738.104	12
738.855	12
739.605	9
740.356	11
741.106	9
741.856	11
742.607	9
743.357	11
744.107	11
744.857	10
745.607	11
746.357	11
747.106	11
747.856	10
748.606	13
749.355	11
750.105	11
750.854	11
751.603	10
752.353	10
753.102	9
753.851	13
754.6	10
755.349	13
756.098	12
756.847	11
757.595	10
758.344	15
759.093	13
759.841	13
760.589	14
761.338	13
762.086	11
762.834	11
763.582	14
764.331	12
765.079	15
765.826	15
766.574	17
767.322	15
768.07	15
768.817	15
769.565	15
770.312	14
771.06	13
771.807	18
772.554	14
773.302	14
774.049	16
774.796	14
775.543	15
776.29	16
777.036	17
777.783	15
778.53	17
779.276	17
780.023	17
780.769	16
781.516	17
782.262	15
783.008	15
783.754	13
784.5	18
785.246	16
785.992	14
786.738	15
787.484	16
788.23	16
788.975	17
789.721	15
790.466	16
791.212	16
791.957	18
792.702	14
793.447	15
794.193	12
794.938	13
795.683	14
796.427	15
797.172	14
797.917	13
798.662	12
799.406	12
800.151	12
800.895	13
801.64	9
802.384	15
803.128	11
803.872	10
804.616	13
805.36	11
806.104	9
806.848	11
807.592	13
808.336	11
809.079	11
809.823	10
810.566	9
811.31	9
812.053	7
812.796	10
813.539	9
814.283	9
815.026	8
815.769	8
816.511	9
817.254	7
817.997	10
818.74	8
819.482	8
820.225	8
820.967	6
821.71	9
822.452	4
823.194	8
823.936	11
824.678	5
825.42	7
826.162	6
826.904	8
827.646	8
828.388	6
829.129	9
829.871	8
830.612	5
831.354	3
832.095	6
832.836	6
833.577	7
834.319	6
835.06	5
835.801	7
836.542	5
837.282	6
838.023	7
838.764	5
839.504	8
840.245	3
840.985	6
841.726	6
842.466	6
843.206	5
843.946	5
844.687	6
845.427	5
846.166	5
846.906	5
847.646	6
848.386	4
849.125	3
849.865	5
850.605	5
851.344	6
852.083	6
852.823	2
853.562	3
854.301	4
855.04	5
855.779	6
856.518	5
857.257	3
857.995	2
858.734	4
859.473	4
860.211	2
860.95	5
861.688	1
862.426	3
863.165	4
863.903	2
864.641	1
865.379	4
866.117	2
866.855	2
867.593	3
868.33	3
869.068	4
869.806	3
870.543	4
871.28	4
872.018	2
872.755	3
873.492	2
874.229	3
874.967	3
875.703	2
876.44	4
877.177	4
877.914	3
878.651	3
879.387	2
880.124	1
880.86	2
881.597	1
882.333	2
883.069	2
883.806	-1
884.542	1
885.278	3
886.014	1
886.749	2
887.485	1
888.221	1
888.957	1
889.692	1
890.428	5
891.163	0
891.899	1
892.634	0
893.369	1
894.104	1
894.839	1
895.574	0
896.309	3
897.044	2
897.779	3
898.514	1
899.248	1
899.983	1
900.717	0
901.452	1
902.186	-1
902.92	4
903.654	1
904.389	0
905.123	2
905.857	1
906.59	1
907.324	0
908.058	3
908.792	0
909.525	1
910.259	0
910.992	1
911.726	0
912.459	-3
913.192	2
913.925	3
914.658	1
915.391	0
916.124	0
916.857	1
917.59	1
918.323	3
919.055	1
919.788	1
920.521	2
921.253	1
921.985	2
922.718	0
923.45	-1
924.182	1
924.914	3
925.646	1
926.378	-2
927.11	1
927.841	1
928.573	1
929.305	-1
930.036	2
930.768	3
931.499	1
932.23	1
932.962	0
933.693	3
934.424	1
935.155	-1
935.886	5
936.617	0
937.348	1
938.078	-1
938.809	1
939.54	1
940.27	0
941.001	1
941.731	-1
942.461	1
943.191	0
943.922	-1
944.652	2
945.382	1
946.112	0
946.841	1
947.571	-1
948.301	0
949.031	1
949.76	0
950.49	1
951.219	0
951.948	1
952.678	0
953.407	0
954.136	1
954.865	0
955.594	1
956.323	-1
957.052	0
957.78	0
958.509	0
959.238	0
959.966	1
960.695	3
961.423	0
962.151	0
962.88	0
963.608	1
964.336	1
965.064	-3
965.792	1
966.52	2
967.247	0
967.975	-2
968.703	0
969.43	0
970.158	0
970.885	1
971.613	2
972.34	0
973.067	1
973.794	0
974.521	1
975.248	1
975.975	0
976.702	2
977.429	0
978.156	1
978.882	0
979.609	1
980.335	2
981.062	0
981.788	0
982.514	0
983.24	2
983.967	4
984.693	1
985.419	2
986.144	-1
986.87	1
987.596	0
988.322	2
989.047	0
989.773	0
990.498	0
991.224	-2
991.949	0
992.674	-1
993.399	1
994.124	0
994.849	0
995.574	-1
996.299	0
997.024	2
997.749	1
998.473	-1
999.198	0
999.922	3
1000.647	1
1001.371	4
1002.095	1
1002.82	-2
1003.544	-1
1004.268	3
1004.992	6
1005.716	5
1006.439	6
1007.163	4
1007.887	5
1008.611	2
1009.334	1
1010.058	2
1010.781	2
1011.504	0
1012.228	1
1012.951	0
1013.674	-2
1014.397	1
1015.12	-1
