节点500_705_QEPB04081__402__20-51-37-669.txt的数据

Date: Wed Nov 12 20:51:37 CST 2025
User: PC
Spectrometer: QEPB0408
触发模式: 0
积分时间 (秒): 1.000000E-2
Scans to average: 1
启用暗噪声校正: true
启用非线性校正: false
滑动平均宽度: 0
X轴模式: Wavelengths
Number of Pixels in Spectrum: 1044
>>>>>Begin Spectral Data<<<<<
220.843	6
221.644	5
222.444	7
223.244	5
224.045	8
224.845	7
225.645	6
226.445	6
227.245	8
228.045	10
228.845	6
229.645	8
230.444	8
231.244	7
232.043	13
232.843	10
233.642	8
234.442	11
235.241	10
236.04	11
236.839	9
237.638	11
238.437	11
239.236	11
240.035	11
240.833	12
241.632	13
242.43	10
243.229	11
244.027	14
244.826	13
245.624	13
246.422	14
247.22	14
248.018	14
248.816	17
249.614	16
250.412	13
251.21	15
252.007	20
252.805	17
253.602	17
254.4	14
255.197	20
255.994	19
256.791	18
257.589	19
258.386	19
259.183	21
259.979	20
260.776	20
261.573	20
262.37	25
263.166	23
263.963	27
264.759	27
265.556	24
266.352	27
267.148	25
267.944	25
268.74	27
269.536	29
270.332	28
271.128	30
271.924	32
272.719	31
273.515	29
274.311	31
275.106	31
275.901	33
276.697	31
277.492	36
278.287	33
279.082	33
279.877	32
280.672	34
281.467	35
282.262	34
283.056	31
283.851	35
284.646	35
285.44	33
286.234	33
287.029	33
287.823	33
288.617	32
289.411	33
290.205	31
290.999	30
291.793	30
292.587	28
293.381	32
294.174	29
294.968	27
295.761	28
296.555	30
297.348	25
298.141	26
298.935	28
299.728	27
300.521	25
301.314	23
302.107	26
302.899	21
303.692	22
304.485	21
305.277	24
306.07	24
306.862	21
307.655	20
308.447	22
309.239	19
310.031	21
310.823	23
311.615	19
312.407	22
313.199	16
313.991	18
314.783	17
315.574	18
316.366	16
317.157	18
317.949	18
318.74	15
319.531	15
320.322	14
321.113	13
321.904	14
322.695	13
323.486	11
324.277	14
325.068	12
325.858	13
326.649	12
327.439	14
328.23	15
329.02	13
329.81	14
330.6	15
331.391	13
332.181	11
332.971	13
333.76	11
334.55	12
335.34	14
336.13	12
336.919	12
337.709	11
338.498	14
339.287	13
340.077	10
340.866	11
341.655	11
342.444	13
343.233	10
344.022	12
344.811	12
345.6	10
346.388	11
347.177	10
347.965	9
348.754	10
349.542	13
350.33	10
351.119	10
351.907	12
352.695	10
353.483	14
354.271	13
355.059	10
355.846	10
356.634	8
357.422	11
358.209	10
358.997	11
359.784	9
360.571	13
361.359	10
362.146	10
362.933	11
363.72	9
364.507	10
365.294	10
366.081	8
366.867	10
367.654	9
368.44	7
369.227	10
370.013	11
370.8	9
371.586	9
372.372	9
373.158	10
373.944	11
374.73	9
375.516	9
376.302	10
377.088	9
377.873	12
378.659	9
379.445	12
380.23	10
381.015	10
381.801	10
382.586	11
383.371	10
384.156	10
384.941	13
385.726	10
386.511	10
387.296	9
388.08	10
388.865	13
389.649	10
390.434	13
391.218	11
392.003	10
392.787	11
393.571	11
394.355	12
395.139	15
395.923	12
396.707	13
397.491	13
398.274	14
399.058	11
399.842	11
400.625	14
401.408	13
402.192	14
402.975	13
403.758	15
404.541	14
405.324	15
406.107	13
406.89	14
407.673	12
408.456	15
409.238	15
410.021	16
410.803	16
411.586	19
412.368	18
413.151	18
413.933	19
414.715	18
415.497	19
416.279	15
417.061	21
417.843	20
418.624	22
419.406	22
420.188	22
420.969	21
421.751	19
422.532	23
423.313	23
424.095	25
424.876	24
425.657	24
426.438	27
427.219	28
428	30
428.78	29
429.561	30
430.342	28
431.122	33
431.903	30
432.683	34
433.464	36
434.244	39
435.024	39
435.804	40
436.584	44
437.364	46
438.144	49
438.924	52
439.704	54
440.483	58
441.263	60
442.042	67
442.822	74
443.601	76
444.38	81
445.16	88
445.939	97
446.718	104
447.497	111
448.276	125
449.054	136
449.833	144
450.612	173
451.391	179
452.169	195
452.948	223
453.726	241
454.504	278
455.282	308
456.061	339
456.839	377
457.617	424
458.395	467
459.172	523
459.95	587
460.728	649
461.506	727
462.283	795
463.061	894
463.838	997
464.615	1113
465.393	1226
466.17	1364
466.947	1527
467.724	1669
468.501	1842
469.278	2053
470.055	2276
470.831	2513
471.608	2773
472.385	3043
473.161	3350
473.938	3665
474.714	4037
475.49	4418
476.266	4842
477.043	5292
477.819	5791
478.595	6301
479.371	6856
480.146	7508
480.922	8180
481.698	8886
482.473	9658
483.249	10494
484.024	11401
484.8	12310
485.575	13330
486.35	14451
487.126	15646
487.901	16871
488.676	18191
489.451	19589
490.225	21059
491	22550
491.775	24149
492.55	25889
493.324	27436
494.099	29169
494.873	30977
495.647	32620
496.422	34340
497.196	36105
497.97	37767
498.744	39211
499.518	40874
500.292	42200
501.066	43278
501.839	44174
502.613	44985
503.387	45679
504.16	46139
504.934	46343
505.707	46465
506.48	46193
507.253	45745
508.027	45204
508.8	44366
509.573	43415
510.346	42383
511.118	41486
511.891	40189
512.664	38793
513.437	37390
514.209	36042
514.982	34630
515.754	33358
516.526	31907
517.298	30674
518.071	29474
518.843	28356
519.615	27141
520.387	26114
521.159	25089
521.93	24038
522.702	22974
523.474	22091
524.245	21185
525.017	20225
525.788	19445
526.56	18614
527.331	17822
528.102	16889
528.873	16063
529.644	15306
530.415	14638
531.186	13878
531.957	13164
532.728	12515
533.498	11859
534.269	11227
535.039	10660
535.81	10078
536.58	9521
537.351	9035
538.121	8561
538.891	8068
539.661	7636
540.431	7205
541.201	6824
541.971	6522
542.741	6144
543.51	5810
544.28	5571
545.05	5289
545.819	5047
546.588	4841
547.358	4597
548.127	4353
548.896	4129
549.665	3931
550.434	3743
551.203	3545
551.972	3360
552.741	3145
553.51	2983
554.278	2833
555.047	2691
555.815	2524
556.584	2387
557.352	2254
558.121	2137
558.889	2021
559.657	1914
560.425	1816
561.193	1709
561.961	1625
562.729	1512
563.496	1432
564.264	1365
565.032	1292
565.799	1239
566.567	1155
567.334	1103
568.101	1044
568.869	982
569.636	915
570.403	876
571.17	818
571.937	771
572.704	730
573.471	689
574.237	645
575.004	614
575.771	574
576.537	547
577.303	508
578.07	494
578.836	462
579.602	431
580.368	409
581.134	387
581.9	380
582.666	361
583.432	339
584.198	323
584.964	301
585.729	294
586.495	275
587.26	261
588.025	253
588.791	233
589.556	215
590.321	206
591.086	200
591.851	187
592.616	178
593.381	174
594.146	165
594.911	155
595.675	147
596.44	146
597.204	137
597.969	132
598.733	123
599.497	124
600.261	118
601.025	108
601.79	105
602.553	107
603.317	96
604.081	92
604.845	93
605.609	85
606.372	82
607.136	77
607.899	77
608.662	76
609.426	70
610.189	66
610.952	63
611.715	64
612.478	58
613.241	56
614.004	56
614.767	54
615.529	54
616.292	48
617.055	49
617.817	48
618.579	45
619.342	48
620.104	45
620.866	41
621.628	40
622.39	40
623.152	39
623.914	35
624.676	34
625.438	32
626.199	31
626.961	34
627.722	31
628.484	31
629.245	29
630.006	30
630.768	31
631.529	28
632.29	26
633.051	26
633.812	27
634.573	23
635.333	24
636.094	24
636.855	22
637.615	22
638.376	21
639.136	23
639.896	19
640.657	21
641.417	18
642.177	19
642.937	18
643.697	20
644.457	19
645.216	15
645.976	16
646.736	17
647.495	17
648.255	16
649.014	13
649.774	14
650.533	14
651.292	15
652.051	14
652.81	14
653.569	15
654.328	12
655.087	14
655.846	13
656.604	13
657.363	11
658.121	12
658.88	11
659.638	10
660.397	13
661.155	12
661.913	12
662.671	10
663.429	11
664.187	11
664.945	10
665.703	11
666.46	9
667.218	9
667.976	8
668.733	12
669.49	10
670.248	11
671.005	8
671.762	11
672.519	10
673.276	8
674.033	10
674.79	9
675.547	9
676.304	9
677.06	9
677.817	8
678.574	9
679.33	8
680.086	9
680.843	9
681.599	7
682.355	11
683.111	7
683.867	6
684.623	8
685.379	10
686.135	10
686.89	8
687.646	10
688.402	7
689.157	7
689.912	10
690.668	8
691.423	7
692.178	6
692.933	10
693.688	6
694.443	6
695.198	6
695.953	6
696.708	8
697.462	8
698.217	8
698.972	7
699.726	8
700.48	9
701.235	7
701.989	9
702.743	8
703.497	6
704.251	9
705.005	8
705.759	8
706.513	8
707.266	6
708.02	8
708.774	7
709.527	11
710.28	8
711.034	6
711.787	8
712.54	7
713.293	4
714.046	10
714.799	7
715.552	9
716.305	8
717.058	7
717.81	9
718.563	9
719.315	6
720.068	8
720.82	9
721.573	9
722.325	10
723.077	10
723.829	6
724.581	8
725.333	7
726.085	8
726.836	8
727.588	9
728.34	10
729.091	10
729.843	7
730.594	8
731.346	6
732.097	10
732.848	11
733.599	9
734.35	10
735.101	10
735.852	9
736.603	12
737.354	10
738.104	9
738.855	11
739.605	10
740.356	10
741.106	11
741.856	9
742.607	7
743.357	13
744.107	9
744.857	10
745.607	12
746.357	11
747.106	10
747.856	11
748.606	12
749.355	11
750.105	11
750.854	10
751.603	10
752.353	12
753.102	11
753.851	13
754.6	11
755.349	13
756.098	11
756.847	11
757.595	12
758.344	11
759.093	11
759.841	12
760.589	11
761.338	13
762.086	14
762.834	14
763.582	14
764.331	13
765.079	13
765.826	11
766.574	14
767.322	14
768.07	14
768.817	15
769.565	15
770.312	14
771.06	11
771.807	15
772.554	15
773.302	13
774.049	13
774.796	17
775.543	17
776.29	15
777.036	17
777.783	17
778.53	14
779.276	14
780.023	13
780.769	18
781.516	15
782.262	15
783.008	15
783.754	14
784.5	17
785.246	14
785.992	19
786.738	15
787.484	13
788.23	16
788.975	14
789.721	17
790.466	14
791.212	13
791.957	15
792.702	15
793.447	16
794.193	15
794.938	15
795.683	15
796.427	12
797.172	12
797.917	11
798.662	13
799.406	12
800.151	12
800.895	14
801.64	12
802.384	13
803.128	12
803.872	11
804.616	11
805.36	12
806.104	13
806.848	9
807.592	8
808.336	13
809.079	9
809.823	9
810.566	8
811.31	11
812.053	9
812.796	11
813.539	9
814.283	8
815.026	6
815.769	7
816.511	9
817.254	8
817.997	8
818.74	9
819.482	9
820.225	9
820.967	7
821.71	8
822.452	9
823.194	5
823.936	6
824.678	7
825.42	7
826.162	9
826.904	10
827.646	6
828.388	6
829.129	7
829.871	5
830.612	7
831.354	6
832.095	5
832.836	6
833.577	6
834.319	8
835.06	5
835.801	7
836.542	5
837.282	8
838.023	7
838.764	6
839.504	5
840.245	7
840.985	6
841.726	5
842.466	4
843.206	6
843.946	3
844.687	5
845.427	5
846.166	7
846.906	6
847.646	5
848.386	5
849.125	6
849.865	5
850.605	5
851.344	6
852.083	5
852.823	5
853.562	5
854.301	5
855.04	4
855.779	6
856.518	3
857.257	6
857.995	6
858.734	3
859.473	2
860.211	3
860.95	3
861.688	6
862.426	3
863.165	4
863.903	5
864.641	3
865.379	4
866.117	3
866.855	3
867.593	3
868.33	3
869.068	1
869.806	4
870.543	2
871.28	3
872.018	2
872.755	3
873.492	3
874.229	4
874.967	3
875.703	0
876.44	4
877.177	2
877.914	1
878.651	2
879.387	2
880.124	2
880.86	3
881.597	1
882.333	2
883.069	2
883.806	3
884.542	1
885.278	2
886.014	2
886.749	2
887.485	1
888.221	2
888.957	2
889.692	3
890.428	0
891.163	0
891.899	2
892.634	0
893.369	-1
894.104	2
894.839	1
895.574	1
896.309	2
897.044	0
897.779	2
898.514	0
899.248	-1
899.983	0
900.717	2
901.452	3
902.186	1
902.92	0
903.654	0
904.389	1
905.123	2
905.857	1
906.59	2
907.324	1
908.058	0
908.792	2
909.525	1
910.259	1
910.992	-1
911.726	2
912.459	1
913.192	1
913.925	-1
914.658	0
915.391	1
916.124	1
916.857	1
917.59	1
918.323	-1
919.055	2
919.788	2
920.521	0
921.253	0
921.985	0
922.718	3
923.45	3
924.182	0
924.914	-1
925.646	1
926.378	2
927.11	0
927.841	-1
928.573	-1
929.305	1
930.036	0
930.768	0
931.499	0
932.23	2
932.962	-1
933.693	1
934.424	1
935.155	0
935.886	-1
936.617	-1
937.348	2
938.078	1
938.809	-1
939.54	0
940.27	1
941.001	0
941.731	1
942.461	-1
943.191	1
943.922	2
944.652	2
945.382	0
946.112	1
946.841	-1
947.571	0
948.301	-1
949.031	-1
949.76	-1
950.49	0
951.219	-1
951.948	0
952.678	0
953.407	-1
954.136	1
954.865	0
955.594	1
956.323	2
957.052	4
957.78	-1
958.509	1
959.238	1
959.966	0
960.695	2
961.423	-1
962.151	1
962.88	1
963.608	0
964.336	1
965.064	1
965.792	0
966.52	-2
967.247	0
967.975	1
968.703	-1
969.43	2
970.158	1
970.885	2
971.613	3
972.34	0
973.067	-3
973.794	2
974.521	-1
975.248	-1
975.975	3
976.702	-1
977.429	1
978.156	-1
978.882	1
979.609	0
980.335	-1
981.062	-1
981.788	0
982.514	0
983.24	2
983.967	2
984.693	-1
985.419	-1
986.144	1
986.87	-3
987.596	-1
988.322	1
989.047	0
989.773	1
990.498	-1
991.224	3
991.949	-1
992.674	-3
993.399	-1
994.124	-1
994.849	-1
995.574	1
996.299	-1
997.024	0
997.749	0
998.473	-2
999.198	2
999.922	1
1000.647	2
1001.371	4
1002.095	-1
1002.82	-1
1003.544	0
1004.268	3
1004.992	2
1005.716	6
1006.439	7
1007.163	7
1007.887	3
1008.611	-2
1009.334	0
1010.058	-2
1010.781	2
1011.504	3
1012.228	2
1012.951	-3
1013.674	0
1014.397	0
1015.12	1
