节点500_705_QEPB04081__317__20-50-28-489.txt的数据

Date: Wed Nov 12 20:50:28 CST 2025
User: PC
Spectrometer: QEPB0408
触发模式: 0
积分时间 (秒): 1.000000E-2
Scans to average: 1
启用暗噪声校正: true
启用非线性校正: false
滑动平均宽度: 0
X轴模式: Wavelengths
Number of Pixels in Spectrum: 1044
>>>>>Begin Spectral Data<<<<<
220.843	5.38
221.644	0.38
222.444	3.38
223.244	9.38
224.045	6.38
224.845	5.38
225.645	5.38
226.445	6.38
227.245	6.38
228.045	6.38
228.845	8.38
229.645	6.38
230.444	10.38
231.244	8.38
232.043	9.38
232.843	7.38
233.642	7.38
234.442	9.38
235.241	10.38
236.04	10.38
236.839	9.38
237.638	9.38
238.437	10.38
239.236	11.38
240.035	13.38
240.833	12.38
241.632	9.38
242.43	12.38
243.229	10.38
244.027	11.38
244.826	10.38
245.624	11.38
246.422	16.38
247.22	15.38
248.018	13.38
248.816	18.38
249.614	12.38
250.412	15.38
251.21	18.38
252.007	18.38
252.805	16.38
253.602	16.38
254.4	16.38
255.197	17.38
255.994	19.38
256.791	21.38
257.589	22.38
258.386	20.38
259.183	20.38
259.979	23.38
260.776	22.38
261.573	21.38
262.37	24.38
263.166	25.38
263.963	21.38
264.759	25.38
265.556	24.38
266.352	24.38
267.148	26.38
267.944	29.38
268.74	28.38
269.536	29.38
270.332	29.38
271.128	30.38
271.924	34.38
272.719	33.38
273.515	32.38
274.311	33.38
275.106	33.38
275.901	31.38
276.697	33.38
277.492	31.38
278.287	31.38
279.082	32.38
279.877	33.38
280.672	35.38
281.467	32.38
282.262	35.38
283.056	31.38
283.851	32.38
284.646	33.38
285.44	31.38
286.234	35.38
287.029	31.38
287.823	33.38
288.617	30.38
289.411	31.38
290.205	33.38
290.999	29.38
291.793	31.38
292.587	32.38
293.381	27.38
294.174	31.38
294.968	30.38
295.761	27.38
296.555	28.38
297.348	28.38
298.141	25.38
298.935	26.38
299.728	23.38
300.521	24.38
301.314	23.38
302.107	22.38
302.899	26.38
303.692	23.38
304.485	20.38
305.277	23.38
306.07	20.38
306.862	24.38
307.655	18.38
308.447	18.38
309.239	23.38
310.031	17.38
310.823	18.38
311.615	16.38
312.407	18.38
313.199	17.38
313.991	18.38
314.783	17.38
315.574	14.38
316.366	17.38
317.157	12.38
317.949	12.38
318.74	16.38
319.531	14.38
320.322	12.38
321.113	13.38
321.904	14.38
322.695	12.38
323.486	14.38
324.277	12.38
325.068	9.38
325.858	12.38
326.649	14.38
327.439	11.38
328.23	11.38
329.02	10.38
329.81	11.38
330.6	11.38
331.391	13.38
332.181	10.38
332.971	12.38
333.76	12.38
334.55	11.38
335.34	12.38
336.13	11.38
336.919	10.38
337.709	10.38
338.498	10.38
339.287	11.38
340.077	11.38
340.866	11.38
341.655	11.38
342.444	9.38
343.233	11.38
344.022	11.38
344.811	14.38
345.6	13.38
346.388	9.38
347.177	13.38
347.965	8.38
348.754	10.38
349.542	8.38
350.33	9.38
351.119	13.38
351.907	12.38
352.695	10.38
353.483	10.38
354.271	8.38
355.059	10.38
355.846	8.38
356.634	8.38
357.422	10.38
358.209	10.38
358.997	10.38
359.784	11.38
360.571	8.38
361.359	8.38
362.146	9.38
362.933	9.38
363.72	11.38
364.507	10.38
365.294	9.38
366.081	9.38
366.867	5.38
367.654	9.38
368.44	9.38
369.227	9.38
370.013	7.38
370.8	8.38
371.586	8.38
372.372	9.38
373.158	11.38
373.944	7.38
374.73	10.38
375.516	10.38
376.302	8.38
377.088	8.38
377.873	10.38
378.659	8.38
379.445	8.38
380.23	7.38
381.015	9.38
381.801	7.38
382.586	7.38
383.371	10.38
384.156	9.38
384.941	9.38
385.726	9.38
386.511	8.38
387.296	10.38
388.08	13.38
388.865	10.38
389.649	12.38
390.434	10.38
391.218	9.38
392.003	10.38
392.787	10.38
393.571	8.38
394.355	10.38
395.139	11.38
395.923	12.38
396.707	11.38
397.491	13.38
398.274	12.38
399.058	12.38
399.842	13.38
400.625	15.38
401.408	11.38
402.192	10.38
402.975	14.38
403.758	13.38
404.541	14.38
405.324	16.38
406.107	12.38
406.89	15.38
407.673	16.38
408.456	15.38
409.238	17.38
410.021	15.38
410.803	17.38
411.586	15.38
412.368	18.38
413.151	16.38
413.933	16.38
414.715	18.38
415.497	17.38
416.279	18.38
417.061	18.38
417.843	21.38
418.624	20.38
419.406	20.38
420.188	19.38
420.969	21.38
421.751	23.38
422.532	17.38
423.313	21.38
424.095	24.38
424.876	23.38
425.657	26.38
426.438	24.38
427.219	25.38
428	28.38
428.78	25.38
429.561	30.38
430.342	29.38
431.122	34.38
431.903	31.38
432.683	34.38
433.464	36.38
434.244	35.38
435.024	39.38
435.804	37.38
436.584	42.38
437.364	45.38
438.144	48.38
438.924	47.38
439.704	50.38
440.483	53.38
441.263	59.38
442.042	66.38
442.822	65.38
443.601	73.38
444.38	82.38
445.16	85.38
445.939	88.38
446.718	97.38
447.497	110.38
448.276	118.38
449.054	130.38
449.833	146.38
450.612	161.38
451.391	174.38
452.169	199.38
452.948	218.38
453.726	237.38
454.504	264.38
455.282	298.38
456.061	329.38
456.839	374.38
457.617	403.38
458.395	457.38
459.172	503.38
459.95	569.38
460.728	634.38
461.506	701.38
462.283	792.38
463.061	888.38
463.838	988.38
464.615	1090.38
465.393	1215.38
466.17	1348.38
466.947	1509.38
467.724	1669.38
468.501	1841.38
469.278	2040.38
470.055	2257.38
470.831	2508.38
471.608	2768.38
472.385	3056.38
473.161	3361.38
473.938	3700.38
474.714	4070.38
475.49	4458.38
476.266	4869.38
477.043	5360.38
477.819	5818.38
478.595	6404.38
479.371	7000.38
480.146	7635.38
480.922	8295.38
481.698	9073.38
482.473	9888.38
483.249	10713.38
484.024	11645.38
484.8	12615.38
485.575	13676.38
486.35	14841.38
487.126	16158.38
487.901	17461.38
488.676	18819.38
489.451	20300.38
490.225	21783.38
491	23412.38
491.775	25064.38
492.55	26800.38
493.324	28587.38
494.099	30266.38
494.873	32136.38
495.647	33935.38
496.422	35727.38
497.196	37534.38
497.97	39151.38
498.744	40670.38
499.518	42280.38
500.292	43621.38
501.066	44639.38
501.839	45592.38
502.613	46308.38
503.387	46932.38
504.16	47386.38
504.934	47470.38
505.707	47370.38
506.48	47016.38
507.253	46452.38
508.027	45762.38
508.8	44697.38
509.573	43672.38
510.346	42603.38
511.118	41550.38
511.891	40298.38
512.664	38722.38
513.437	37356.38
514.209	35879.38
514.982	34506.38
515.754	33087.38
516.526	31729.38
517.298	30531.38
518.071	29212.38
518.843	28023.38
519.615	27021.38
520.387	25939.38
521.159	24915.38
521.93	23886.38
522.702	22817.38
523.474	21870.38
524.245	20926.38
525.017	20034.38
525.788	19093.38
526.56	18376.38
527.331	17536.38
528.102	16668.38
528.873	15821.38
529.644	15037.38
530.415	14395.38
531.186	13637.38
531.957	12935.38
532.728	12296.38
533.498	11662.38
534.269	11035.38
535.039	10441.38
535.81	9864.38
536.58	9319.38
537.351	8813.38
538.121	8361.38
538.891	7897.38
539.661	7470.38
540.431	7106.38
541.201	6730.38
541.971	6363.38
542.741	6014.38
543.51	5709.38
544.28	5467.38
545.05	5209.38
545.819	4957.38
546.588	4714.38
547.358	4494.38
548.127	4260.38
548.896	4041.38
549.665	3847.38
550.434	3628.38
551.203	3448.38
551.972	3289.38
552.741	3114.38
553.51	2933.38
554.278	2755.38
555.047	2599.38
555.815	2464.38
556.584	2333.38
557.352	2217.38
558.121	2069.38
558.889	1970.38
559.657	1848.38
560.425	1744.38
561.193	1664.38
561.961	1570.38
562.729	1483.38
563.496	1409.38
564.264	1333.38
565.032	1265.38
565.799	1198.38
566.567	1122.38
567.334	1078.38
568.101	1003.38
568.869	951.38
569.636	893.38
570.403	850.38
571.17	794.38
571.937	737.38
572.704	709.38
573.471	670.38
574.237	639.38
575.004	596.38
575.771	566.38
576.537	536.38
577.303	510.38
578.07	476.38
578.836	439.38
579.602	427.38
580.368	401.38
581.134	379.38
581.9	366.38
582.666	338.38
583.432	330.38
584.198	314.38
584.964	294.38
585.729	281.38
586.495	270.38
587.26	257.38
588.025	235.38
588.791	217.38
589.556	213.38
590.321	200.38
591.086	192.38
591.851	184.38
592.616	178.38
593.381	170.38
594.146	162.38
594.911	150.38
595.675	144.38
596.44	144.38
597.204	134.38
597.969	131.38
598.733	126.38
599.497	115.38
600.261	115.38
601.025	106.38
601.79	104.38
602.553	96.38
603.317	94.38
604.081	91.38
604.845	84.38
605.609	80.38
606.372	80.38
607.136	77.38
607.899	75.38
608.662	71.38
609.426	67.38
610.189	68.38
610.952	60.38
611.715	60.38
612.478	61.38
613.241	56.38
614.004	52.38
614.767	54.38
615.529	48.38
616.292	51.38
617.055	48.38
617.817	47.38
618.579	45.38
619.342	43.38
620.104	40.38
620.866	42.38
621.628	38.38
622.39	37.38
623.152	37.38
623.914	36.38
624.676	32.38
625.438	34.38
626.199	34.38
626.961	30.38
627.722	29.38
628.484	29.38
629.245	28.38
630.006	28.38
630.768	25.38
631.529	26.38
632.29	25.38
633.051	25.38
633.812	25.38
634.573	22.38
635.333	24.38
636.094	20.38
636.855	17.38
637.615	20.38
638.376	21.38
639.136	21.38
639.896	20.38
640.657	16.38
641.417	16.38
642.177	18.38
642.937	18.38
643.697	18.38
644.457	17.38
645.216	18.38
645.976	14.38
646.736	15.38
647.495	13.38
648.255	14.38
649.014	16.38
649.774	13.38
650.533	9.38
651.292	14.38
652.051	13.38
652.81	13.38
653.569	10.38
654.328	13.38
655.087	13.38
655.846	10.38
656.604	10.38
657.363	13.38
658.121	10.38
658.88	10.38
659.638	10.38
660.397	10.38
661.155	12.38
661.913	10.38
662.671	10.38
663.429	8.38
664.187	11.38
664.945	8.38
665.703	11.38
666.46	10.38
667.218	12.38
667.976	9.38
668.733	7.38
669.49	10.38
670.248	10.38
671.005	9.38
671.762	7.38
672.519	9.38
673.276	9.38
674.033	8.38
674.79	9.38
675.547	7.38
676.304	9.38
677.06	9.38
677.817	6.38
678.574	6.38
679.33	8.38
680.086	7.38
680.843	8.38
681.599	7.38
682.355	7.38
683.111	6.38
683.867	8.38
684.623	6.38
685.379	9.38
686.135	8.38
686.89	7.38
687.646	7.38
688.402	6.38
689.157	8.38
689.912	7.38
690.668	5.38
691.423	4.38
692.178	7.38
692.933	6.38
693.688	8.38
694.443	7.38
695.198	6.38
695.953	7.38
696.708	7.38
697.462	4.38
698.217	5.38
698.972	6.38
699.726	8.38
700.48	6.38
701.235	7.38
701.989	8.38
702.743	6.38
703.497	8.38
704.251	4.38
705.005	5.38
705.759	5.38
706.513	6.38
707.266	4.38
708.02	7.38
708.774	8.38
709.527	6.38
710.28	4.38
711.034	5.38
711.787	6.38
712.54	5.38
713.293	6.38
714.046	7.38
714.799	6.38
715.552	8.38
716.305	6.38
717.058	5.38
717.81	4.38
718.563	7.38
719.315	7.38
720.068	7.38
720.82	6.38
721.573	8.38
722.325	5.38
723.077	10.38
723.829	7.38
724.581	9.38
725.333	9.38
726.085	8.38
726.836	11.38
727.588	5.38
728.34	7.38
729.091	8.38
729.843	8.38
730.594	9.38
731.346	8.38
732.097	8.38
732.848	6.38
733.599	7.38
734.35	9.38
735.101	10.38
735.852	8.38
736.603	9.38
737.354	10.38
738.104	8.38
738.855	8.38
739.605	9.38
740.356	9.38
741.106	9.38
741.856	6.38
742.607	9.38
743.357	10.38
744.107	10.38
744.857	11.38
745.607	9.38
746.357	7.38
747.106	7.38
747.856	7.38
748.606	11.38
749.355	7.38
750.105	9.38
750.854	12.38
751.603	9.38
752.353	13.38
753.102	10.38
753.851	11.38
754.6	10.38
755.349	11.38
756.098	11.38
756.847	11.38
757.595	12.38
758.344	10.38
759.093	12.38
759.841	10.38
760.589	11.38
761.338	13.38
762.086	13.38
762.834	12.38
763.582	10.38
764.331	10.38
765.079	13.38
765.826	12.38
766.574	13.38
767.322	12.38
768.07	11.38
768.817	14.38
769.565	14.38
770.312	14.38
771.06	13.38
771.807	12.38
772.554	16.38
773.302	16.38
774.049	13.38
774.796	14.38
775.543	12.38
776.29	14.38
777.036	16.38
777.783	16.38
778.53	16.38
779.276	16.38
780.023	14.38
780.769	17.38
781.516	14.38
782.262	15.38
783.008	14.38
783.754	15.38
784.5	17.38
785.246	14.38
785.992	12.38
786.738	16.38
787.484	15.38
788.23	14.38
788.975	14.38
789.721	16.38
790.466	12.38
791.212	11.38
791.957	13.38
792.702	12.38
793.447	13.38
794.193	11.38
794.938	14.38
795.683	12.38
796.427	12.38
797.172	12.38
797.917	13.38
798.662	12.38
799.406	14.38
800.151	13.38
800.895	12.38
801.64	10.38
802.384	11.38
803.128	10.38
803.872	13.38
804.616	14.38
805.36	11.38
806.104	13.38
806.848	6.38
807.592	10.38
808.336	8.38
809.079	8.38
809.823	7.38
810.566	7.38
811.31	11.38
812.053	7.38
812.796	8.38
813.539	8.38
814.283	6.38
815.026	8.38
815.769	7.38
816.511	6.38
817.254	8.38
817.997	6.38
818.74	9.38
819.482	7.38
820.225	11.38
820.967	8.38
821.71	8.38
822.452	7.38
823.194	5.38
823.936	4.38
824.678	7.38
825.42	8.38
826.162	5.38
826.904	6.38
827.646	5.38
828.388	5.38
829.129	5.38
829.871	4.38
830.612	5.38
831.354	3.38
832.095	7.38
832.836	6.38
833.577	7.38
834.319	6.38
835.06	3.38
835.801	6.38
836.542	6.38
837.282	5.38
838.023	6.38
838.764	3.38
839.504	7.38
840.245	5.38
840.985	6.38
841.726	5.38
842.466	7.38
843.206	5.38
843.946	4.38
844.687	5.38
845.427	2.38
846.166	4.38
846.906	5.38
847.646	4.38
848.386	6.38
849.125	8.38
849.865	3.38
850.605	3.38
851.344	3.38
852.083	5.38
852.823	3.38
853.562	5.38
854.301	1.38
855.04	3.38
855.779	3.38
856.518	1.38
857.257	2.38
857.995	5.38
858.734	4.38
859.473	5.38
860.211	2.38
860.95	5.38
861.688	3.38
862.426	5.38
863.165	2.38
863.903	2.38
864.641	3.38
865.379	2.38
866.117	3.38
866.855	2.38
867.593	1.38
868.33	0.38
869.068	3.38
869.806	1.38
870.543	2.38
871.28	1.38
872.018	1.38
872.755	3.38
873.492	4.38
874.229	4.38
874.967	3.38
875.703	-0.62
876.44	1.38
877.177	0.38
877.914	3.38
878.651	0.38
879.387	2.38
880.124	1.38
880.86	1.38
881.597	1.38
882.333	1.38
883.069	0.38
883.806	-0.62
884.542	1.38
885.278	0.38
886.014	2.38
886.749	1.38
887.485	3.38
888.221	1.38
888.957	2.38
889.692	0.38
890.428	2.38
891.163	2.38
891.899	-0.62
892.634	0.38
893.369	0.38
894.104	0.38
894.839	2.38
895.574	2.38
896.309	0.38
897.044	1.38
897.779	-1.62
898.514	0.38
899.248	1.38
899.983	1.38
900.717	-1.62
901.452	-0.62
902.186	0.38
902.92	0.38
903.654	0.38
904.389	0.38
905.123	1.38
905.857	1.38
906.59	0.38
907.324	1.38
908.058	0.38
908.792	-0.62
909.525	-0.62
910.259	0.38
910.992	-1.62
911.726	1.38
912.459	1.38
913.192	0.38
913.925	0.38
914.658	-0.62
915.391	0.38
916.124	0.38
916.857	-0.62
917.59	-0.62
918.323	1.38
919.055	-1.62
919.788	-0.62
920.521	1.38
921.253	-2.62
921.985	0.38
922.718	-1.62
923.45	1.38
924.182	-1.62
924.914	0.38
925.646	2.38
926.378	-0.62
927.11	0.38
927.841	0.38
928.573	-1.62
929.305	0.38
930.036	-1.62
930.768	-1.62
931.499	-1.62
932.23	0.38
932.962	1.38
933.693	0.38
934.424	0.38
935.155	0.38
935.886	0.38
936.617	-0.62
937.348	0.38
938.078	0.38
938.809	-2.62
939.54	0.38
940.27	0.38
941.001	0.38
941.731	0.38
942.461	-0.62
943.191	0.38
943.922	-0.62
944.652	0.38
945.382	-1.62
946.112	-0.62
946.841	-0.62
947.571	-1.62
948.301	0.38
949.031	-1.62
949.76	-1.62
950.49	0.38
951.219	-1.62
951.948	-1.62
952.678	-1.62
953.407	1.38
954.136	-0.62
954.865	0.38
955.594	0.38
956.323	-1.62
957.052	1.38
957.78	0.38
958.509	-0.62
959.238	-1.62
959.966	1.38
960.695	-0.62
961.423	0.38
962.151	0.38
962.88	-0.62
963.608	0.38
964.336	0.38
965.064	-0.62
965.792	0.38
966.52	-0.62
967.247	-1.62
967.975	0.38
968.703	0.38
969.43	-1.62
970.158	-3.62
970.885	0.38
971.613	0.38
972.34	1.38
973.067	0.38
973.794	1.38
974.521	0.38
975.248	-2.62
975.975	-1.62
976.702	2.38
977.429	-1.62
978.156	-0.62
978.882	1.38
979.609	-2.62
980.335	-2.62
981.062	-0.62
981.788	-1.62
982.514	0.38
983.24	0.38
983.967	-0.62
984.693	0.38
985.419	-1.62
986.144	-2.62
986.87	-1.62
987.596	0.38
988.322	0.38
989.047	0.38
989.773	-1.62
990.498	-1.62
991.224	0.38
991.949	1.38
992.674	0.38
993.399	0.38
994.124	-0.62
994.849	-1.62
995.574	-0.62
996.299	-1.62
997.024	-0.62
997.749	-0.62
998.473	2.38
999.198	0.38
999.922	-1.62
1000.647	-2.62
1001.371	1.38
1002.095	0.38
1002.82	-2.62
1003.544	-0.62
1004.268	5.38
1004.992	2.38
1005.716	4.38
1006.439	4.38
1007.163	4.38
1007.887	6.38
1008.611	0.38
1009.334	1.38
1010.058	-0.62
1010.781	1.38
1011.504	0.38
1012.228	1.38
1012.951	0.38
1013.674	-0.62
1014.397	1.38
1015.12	0.38
