节点500_705_QEPB04081__114__20-47-47-112.txt的数据

Date: Wed Nov 12 20:47:47 CST 2025
User: PC
Spectrometer: QEPB0408
触发模式: 0
积分时间 (秒): 1.000000E-2
Scans to average: 1
启用暗噪声校正: true
启用非线性校正: false
滑动平均宽度: 0
X轴模式: Wavelengths
Number of Pixels in Spectrum: 1044
>>>>>Begin Spectral Data<<<<<
220.843	4.75
221.644	4.75
222.444	4.75
223.244	4.75
224.045	6.75
224.845	5.75
225.645	5.75
226.445	8.75
227.245	8.75
228.045	5.75
228.845	5.75
229.645	9.75
230.444	6.75
231.244	9.75
232.043	7.75
232.843	9.75
233.642	8.75
234.442	10.75
235.241	8.75
236.04	8.75
236.839	10.75
237.638	11.75
238.437	10.75
239.236	12.75
240.035	12.75
240.833	14.75
241.632	10.75
242.43	13.75
243.229	9.75
244.027	10.75
244.826	12.75
245.624	13.75
246.422	12.75
247.22	14.75
248.018	15.75
248.816	15.75
249.614	14.75
250.412	15.75
251.21	14.75
252.007	19.75
252.805	17.75
253.602	19.75
254.4	19.75
255.197	21.75
255.994	20.75
256.791	18.75
257.589	23.75
258.386	24.75
259.183	21.75
259.979	23.75
260.776	24.75
261.573	23.75
262.37	26.75
263.166	26.75
263.963	25.75
264.759	27.75
265.556	29.75
266.352	26.75
267.148	26.75
267.944	28.75
268.74	32.75
269.536	30.75
270.332	32.75
271.128	36.75
271.924	30.75
272.719	33.75
273.515	35.75
274.311	34.75
275.106	33.75
275.901	35.75
276.697	36.75
277.492	35.75
278.287	35.75
279.082	36.75
279.877	34.75
280.672	36.75
281.467	33.75
282.262	36.75
283.056	35.75
283.851	36.75
284.646	35.75
285.44	32.75
286.234	32.75
287.029	33.75
287.823	36.75
288.617	34.75
289.411	32.75
290.205	35.75
290.999	31.75
291.793	34.75
292.587	31.75
293.381	29.75
294.174	29.75
294.968	28.75
295.761	28.75
296.555	29.75
297.348	28.75
298.141	22.75
298.935	33.75
299.728	27.75
300.521	23.75
301.314	23.75
302.107	22.75
302.899	21.75
303.692	21.75
304.485	23.75
305.277	22.75
306.07	20.75
306.862	20.75
307.655	18.75
308.447	18.75
309.239	18.75
310.031	20.75
310.823	16.75
311.615	15.75
312.407	18.75
313.199	17.75
313.991	18.75
314.783	17.75
315.574	12.75
316.366	16.75
317.157	14.75
317.949	14.75
318.74	14.75
319.531	15.75
320.322	13.75
321.113	12.75
321.904	13.75
322.695	12.75
323.486	15.75
324.277	13.75
325.068	12.75
325.858	14.75
326.649	11.75
327.439	12.75
328.23	12.75
329.02	13.75
329.81	11.75
330.6	11.75
331.391	12.75
332.181	10.75
332.971	13.75
333.76	10.75
334.55	8.75
335.34	11.75
336.13	12.75
336.919	12.75
337.709	10.75
338.498	13.75
339.287	8.75
340.077	10.75
340.866	12.75
341.655	10.75
342.444	11.75
343.233	10.75
344.022	10.75
344.811	11.75
345.6	13.75
346.388	9.75
347.177	8.75
347.965	11.75
348.754	8.75
349.542	11.75
350.33	10.75
351.119	9.75
351.907	11.75
352.695	9.75
353.483	10.75
354.271	12.75
355.059	10.75
355.846	13.75
356.634	9.75
357.422	7.75
358.209	8.75
358.997	8.75
359.784	8.75
360.571	9.75
361.359	9.75
362.146	11.75
362.933	10.75
363.72	7.75
364.507	11.75
365.294	10.75
366.081	9.75
366.867	9.75
367.654	7.75
368.44	7.75
369.227	9.75
370.013	7.75
370.8	9.75
371.586	8.75
372.372	8.75
373.158	11.75
373.944	9.75
374.73	8.75
375.516	9.75
376.302	10.75
377.088	7.75
377.873	10.75
378.659	6.75
379.445	8.75
380.23	8.75
381.015	12.75
381.801	12.75
382.586	10.75
383.371	10.75
384.156	9.75
384.941	11.75
385.726	10.75
386.511	12.75
387.296	11.75
388.08	11.75
388.865	10.75
389.649	10.75
390.434	11.75
391.218	10.75
392.003	11.75
392.787	11.75
393.571	12.75
394.355	12.75
395.139	10.75
395.923	12.75
396.707	14.75
397.491	12.75
398.274	13.75
399.058	12.75
399.842	14.75
400.625	13.75
401.408	15.75
402.192	12.75
402.975	13.75
403.758	15.75
404.541	14.75
405.324	13.75
406.107	15.75
406.89	13.75
407.673	13.75
408.456	16.75
409.238	16.75
410.021	17.75
410.803	16.75
411.586	16.75
412.368	19.75
413.151	20.75
413.933	19.75
414.715	17.75
415.497	21.75
416.279	20.75
417.061	17.75
417.843	19.75
418.624	18.75
419.406	21.75
420.188	18.75
420.969	21.75
421.751	22.75
422.532	24.75
423.313	23.75
424.095	24.75
424.876	23.75
425.657	23.75
426.438	26.75
427.219	28.75
428	23.75
428.78	27.75
429.561	28.75
430.342	32.75
431.122	31.75
431.903	35.75
432.683	34.75
433.464	36.75
434.244	35.75
435.024	39.75
435.804	38.75
436.584	44.75
437.364	43.75
438.144	47.75
438.924	49.75
439.704	48.75
440.483	54.75
441.263	58.75
442.042	64.75
442.822	64.75
443.601	69.75
444.38	79.75
445.16	85.75
445.939	88.75
446.718	99.75
447.497	103.75
448.276	114.75
449.054	124.75
449.833	134.75
450.612	152.75
451.391	170.75
452.169	179.75
452.948	204.75
453.726	221.75
454.504	243.75
455.282	282.75
456.061	310.75
456.839	356.75
457.617	392.75
458.395	430.75
459.172	486.75
459.95	536.75
460.728	606.75
461.506	676.75
462.283	754.75
463.061	847.75
463.838	944.75
464.615	1053.75
465.393	1182.75
466.17	1309.75
466.947	1468.75
467.724	1603.75
468.501	1818.75
469.278	2022.75
470.055	2220.75
470.831	2475.75
471.608	2760.75
472.385	3021.75
473.161	3364.75
473.938	3698.75
474.714	4076.75
475.49	4511.75
476.266	4963.75
477.043	5453.75
477.819	5999.75
478.595	6549.75
479.371	7205.75
480.146	7901.75
480.922	8646.75
481.698	9435.75
482.473	10342.75
483.249	11284.75
484.024	12290.75
484.8	13337.75
485.575	14532.75
486.35	15838.75
487.126	17204.75
487.901	18702.75
488.676	20188.75
489.451	21845.75
490.225	23579.75
491	25271.75
491.775	27103.75
492.55	29006.75
493.324	30845.75
494.099	32697.75
494.873	34748.75
495.647	36697.75
496.422	38642.75
497.196	40579.75
497.97	42191.75
498.744	43710.75
499.518	45346.75
500.292	46658.75
501.066	47632.75
501.839	48413.75
502.613	49000.75
503.387	49408.75
504.16	49703.75
504.934	49583.75
505.707	49166.75
506.48	48573.75
507.253	47843.75
508.027	46932.75
508.8	45648.75
509.573	44385.75
510.346	43124.75
511.118	41882.75
511.891	40461.75
512.664	38775.75
513.437	37110.75
514.209	35708.75
514.982	34202.75
515.754	32754.75
516.526	31485.75
517.298	30141.75
518.071	28904.75
518.843	27757.75
519.615	26611.75
520.387	25650.75
521.159	24551.75
521.93	23459.75
522.702	22520.75
523.474	21533.75
524.245	20653.75
525.017	19649.75
525.788	18811.75
526.56	17969.75
527.331	17170.75
528.102	16234.75
528.873	15386.75
529.644	14642.75
530.415	13971.75
531.186	13319.75
531.957	12541.75
532.728	11839.75
533.498	11247.75
534.269	10621.75
535.039	10035.75
535.81	9506.75
536.58	8984.75
537.351	8475.75
538.121	8084.75
538.891	7625.75
539.661	7215.75
540.431	6796.75
541.201	6464.75
541.971	6165.75
542.741	5778.75
543.51	5468.75
544.28	5243.75
545.05	5013.75
545.819	4769.75
546.588	4542.75
547.358	4318.75
548.127	4086.75
548.896	3870.75
549.665	3687.75
550.434	3475.75
551.203	3294.75
551.972	3122.75
552.741	2965.75
553.51	2792.75
554.278	2620.75
555.047	2472.75
555.815	2359.75
556.584	2213.75
557.352	2097.75
558.121	1952.75
558.889	1865.75
559.657	1754.75
560.425	1677.75
561.193	1569.75
561.961	1496.75
562.729	1420.75
563.496	1336.75
564.264	1263.75
565.032	1197.75
565.799	1148.75
566.567	1069.75
567.334	1014.75
568.101	949.75
568.869	904.75
569.636	845.75
570.403	809.75
571.17	757.75
571.937	718.75
572.704	675.75
573.471	635.75
574.237	606.75
575.004	568.75
575.771	532.75
576.537	509.75
577.303	476.75
578.07	455.75
578.836	429.75
579.602	407.75
580.368	380.75
581.134	364.75
581.9	341.75
582.666	333.75
583.432	309.75
584.198	298.75
584.964	274.75
585.729	268.75
586.495	253.75
587.26	238.75
588.025	230.75
588.791	215.75
589.556	206.75
590.321	189.75
591.086	185.75
591.851	175.75
592.616	169.75
593.381	158.75
594.146	144.75
594.911	150.75
595.675	134.75
596.44	133.75
597.204	132.75
597.969	121.75
598.733	117.75
599.497	112.75
600.261	102.75
601.025	102.75
601.79	96.75
602.553	95.75
603.317	90.75
604.081	85.75
604.845	83.75
605.609	78.75
606.372	77.75
607.136	76.75
607.899	70.75
608.662	70.75
609.426	65.75
610.189	66.75
610.952	61.75
611.715	57.75
612.478	56.75
613.241	56.75
614.004	55.75
614.767	52.75
615.529	50.75
616.292	47.75
617.055	45.75
617.817	42.75
618.579	47.75
619.342	44.75
620.104	45.75
620.866	40.75
621.628	38.75
622.39	37.75
623.152	36.75
623.914	30.75
624.676	36.75
625.438	28.75
626.199	30.75
626.961	30.75
627.722	29.75
628.484	30.75
629.245	28.75
630.006	28.75
630.768	25.75
631.529	26.75
632.29	24.75
633.051	23.75
633.812	25.75
634.573	23.75
635.333	24.75
636.094	22.75
636.855	18.75
637.615	22.75
638.376	18.75
639.136	21.75
639.896	17.75
640.657	20.75
641.417	17.75
642.177	18.75
642.937	16.75
643.697	18.75
644.457	16.75
645.216	13.75
645.976	14.75
646.736	16.75
647.495	16.75
648.255	17.75
649.014	16.75
649.774	14.75
650.533	12.75
651.292	13.75
652.051	14.75
652.81	11.75
653.569	14.75
654.328	10.75
655.087	12.75
655.846	10.75
656.604	11.75
657.363	11.75
658.121	10.75
658.88	12.75
659.638	12.75
660.397	10.75
661.155	12.75
661.913	8.75
662.671	12.75
663.429	10.75
664.187	11.75
664.945	11.75
665.703	12.75
666.46	11.75
667.218	9.75
667.976	9.75
668.733	9.75
669.49	8.75
670.248	10.75
671.005	9.75
671.762	9.75
672.519	8.75
673.276	9.75
674.033	10.75
674.79	9.75
675.547	6.75
676.304	8.75
677.06	9.75
677.817	9.75
678.574	6.75
679.33	8.75
680.086	8.75
680.843	8.75
681.599	7.75
682.355	9.75
683.111	8.75
683.867	7.75
684.623	8.75
685.379	5.75
686.135	7.75
686.89	6.75
687.646	5.75
688.402	8.75
689.157	6.75
689.912	6.75
690.668	5.75
691.423	4.75
692.178	9.75
692.933	7.75
693.688	7.75
694.443	7.75
695.198	7.75
695.953	7.75
696.708	7.75
697.462	6.75
698.217	4.75
698.972	7.75
699.726	6.75
700.48	8.75
701.235	5.75
701.989	7.75
702.743	7.75
703.497	5.75
704.251	6.75
705.005	6.75
705.759	4.75
706.513	7.75
707.266	4.75
708.02	10.75
708.774	4.75
709.527	7.75
710.28	5.75
711.034	8.75
711.787	6.75
712.54	7.75
713.293	9.75
714.046	7.75
714.799	7.75
715.552	6.75
716.305	5.75
717.058	6.75
717.81	6.75
718.563	7.75
719.315	6.75
720.068	9.75
720.82	6.75
721.573	9.75
722.325	6.75
723.077	8.75
723.829	7.75
724.581	8.75
725.333	7.75
726.085	9.75
726.836	5.75
727.588	7.75
728.34	8.75
729.091	10.75
729.843	7.75
730.594	9.75
731.346	11.75
732.097	6.75
732.848	10.75
733.599	8.75
734.35	8.75
735.101	9.75
735.852	6.75
736.603	8.75
737.354	8.75
738.104	9.75
738.855	8.75
739.605	11.75
740.356	9.75
741.106	9.75
741.856	8.75
742.607	11.75
743.357	10.75
744.107	10.75
744.857	9.75
745.607	12.75
746.357	12.75
747.106	12.75
747.856	11.75
748.606	11.75
749.355	10.75
750.105	10.75
750.854	12.75
751.603	9.75
752.353	11.75
753.102	14.75
753.851	10.75
754.6	12.75
755.349	11.75
756.098	14.75
756.847	11.75
757.595	13.75
758.344	12.75
759.093	12.75
759.841	13.75
760.589	10.75
761.338	14.75
762.086	12.75
762.834	10.75
763.582	12.75
764.331	12.75
765.079	14.75
765.826	13.75
766.574	12.75
767.322	14.75
768.07	16.75
768.817	13.75
769.565	14.75
770.312	15.75
771.06	16.75
771.807	12.75
772.554	15.75
773.302	13.75
774.049	15.75
774.796	16.75
775.543	15.75
776.29	16.75
777.036	18.75
777.783	18.75
778.53	14.75
779.276	14.75
780.023	12.75
780.769	16.75
781.516	17.75
782.262	16.75
783.008	15.75
783.754	15.75
784.5	15.75
785.246	16.75
785.992	15.75
786.738	15.75
787.484	15.75
788.23	17.75
788.975	13.75
789.721	13.75
790.466	16.75
791.212	14.75
791.957	15.75
792.702	10.75
793.447	14.75
794.193	11.75
794.938	14.75
795.683	14.75
796.427	13.75
797.172	13.75
797.917	12.75
798.662	12.75
799.406	12.75
800.151	11.75
800.895	10.75
801.64	14.75
802.384	10.75
803.128	10.75
803.872	11.75
804.616	9.75
805.36	9.75
806.104	10.75
806.848	7.75
807.592	10.75
808.336	11.75
809.079	10.75
809.823	9.75
810.566	9.75
811.31	10.75
812.053	8.75
812.796	8.75
813.539	9.75
814.283	9.75
815.026	8.75
815.769	8.75
816.511	11.75
817.254	10.75
817.997	6.75
818.74	8.75
819.482	6.75
820.225	7.75
820.967	6.75
821.71	9.75
822.452	7.75
823.194	8.75
823.936	4.75
824.678	7.75
825.42	5.75
826.162	7.75
826.904	6.75
827.646	4.75
828.388	5.75
829.129	4.75
829.871	5.75
830.612	7.75
831.354	7.75
832.095	4.75
832.836	6.75
833.577	5.75
834.319	9.75
835.06	4.75
835.801	7.75
836.542	4.75
837.282	6.75
838.023	4.75
838.764	2.75
839.504	5.75
840.245	6.75
840.985	7.75
841.726	4.75
842.466	0.75
843.206	7.75
843.946	4.75
844.687	3.75
845.427	3.75
846.166	4.75
846.906	4.75
847.646	3.75
848.386	5.75
849.125	4.75
849.865	5.75
850.605	2.75
851.344	1.75
852.083	5.75
852.823	2.75
853.562	4.75
854.301	4.75
855.04	3.75
855.779	2.75
856.518	2.75
857.257	4.75
857.995	2.75
858.734	4.75
859.473	4.75
860.211	4.75
860.95	1.75
861.688	3.75
862.426	4.75
863.165	1.75
863.903	1.75
864.641	2.75
865.379	1.75
866.117	2.75
866.855	0.75
867.593	2.75
868.33	0.75
869.068	-0.25
869.806	1.75
870.543	0.75
871.28	1.75
872.018	0.75
872.755	2.75
873.492	2.75
874.229	0.75
874.967	0.75
875.703	2.75
876.44	2.75
877.177	-0.25
877.914	2.75
878.651	0.75
879.387	0.75
880.124	2.75
880.86	1.75
881.597	0.75
882.333	0.75
883.069	0.75
883.806	2.75
884.542	-1.25
885.278	0.75
886.014	0.75
886.749	-1.25
887.485	-1.25
888.221	0.75
888.957	1.75
889.692	0.75
890.428	0.75
891.163	0.75
891.899	0.75
892.634	-0.25
893.369	1.75
894.104	1.75
894.839	-1.25
895.574	2.75
896.309	0.75
897.044	0.75
897.779	0.75
898.514	0.75
899.248	2.75
899.983	0.75
900.717	1.75
901.452	1.75
902.186	-0.25
902.92	1.75
903.654	-1.25
904.389	-0.25
905.123	0.75
905.857	-0.25
906.59	1.75
907.324	-1.25
908.058	2.75
908.792	0.75
909.525	-2.25
910.259	-0.25
910.992	1.75
911.726	1.75
912.459	-0.25
913.192	1.75
913.925	0.75
914.658	-2.25
915.391	1.75
916.124	-0.25
916.857	1.75
917.59	-2.25
918.323	0.75
919.055	-1.25
919.788	0.75
920.521	0.75
921.253	-3.25
921.985	1.75
922.718	1.75
923.45	-0.25
924.182	0.75
924.914	2.75
925.646	-0.25
926.378	-0.25
927.11	-1.25
927.841	-1.25
928.573	1.75
929.305	1.75
930.036	0.75
930.768	-0.25
931.499	0.75
932.23	1.75
932.962	-1.25
933.693	0.75
934.424	-0.25
935.155	-2.25
935.886	1.75
936.617	0.75
937.348	2.75
938.078	1.75
938.809	0.75
939.54	-1.25
940.27	-1.25
941.001	1.75
941.731	1.75
942.461	0.75
943.191	0.75
943.922	0.75
944.652	0.75
945.382	-0.25
946.112	-1.25
946.841	-0.25
947.571	-0.25
948.301	1.75
949.031	-0.25
949.76	0.75
950.49	-0.25
951.219	0.75
951.948	0.75
952.678	-0.25
953.407	-1.25
954.136	-1.25
954.865	1.75
955.594	0.75
956.323	-0.25
957.052	0.75
957.78	-0.25
958.509	-1.25
959.238	0.75
959.966	0.75
960.695	-1.25
961.423	0.75
962.151	-1.25
962.88	-1.25
963.608	1.75
964.336	-2.25
965.064	-0.25
965.792	1.75
966.52	0.75
967.247	-0.25
967.975	-1.25
968.703	-1.25
969.43	0.75
970.158	-1.25
970.885	-1.25
971.613	-0.25
972.34	0.75
973.067	0.75
973.794	-1.25
974.521	0.75
975.248	0.75
975.975	-0.25
976.702	1.75
977.429	-1.25
978.156	-1.25
978.882	2.75
979.609	1.75
980.335	0.75
981.062	0.75
981.788	0.75
982.514	-0.25
983.24	1.75
983.967	-1.25
984.693	-1.25
985.419	0.75
986.144	-1.25
986.87	-0.25
987.596	0.75
988.322	0.75
989.047	-1.25
989.773	-0.25
990.498	1.75
991.224	-1.25
991.949	0.75
992.674	0.75
993.399	-2.25
994.124	-0.25
994.849	-0.25
995.574	-3.25
996.299	-1.25
997.024	-0.25
997.749	-3.25
998.473	-0.25
999.198	1.75
999.922	-1.25
1000.647	-0.25
1001.371	0.75
1002.095	0.75
1002.82	0.75
1003.544	-1.25
1004.268	6.75
1004.992	4.75
1005.716	6.75
1006.439	3.75
1007.163	6.75
1007.887	5.75
1008.611	0.75
1009.334	-1.25
1010.058	1.75
1010.781	-0.25
1011.504	-0.25
1012.228	1.75
1012.951	1.75
1013.674	-1.25
1014.397	-0.25
1015.12	-1.25
