节点500_705_QEPB04081__282__20-49-59-431.txt的数据

Date: Wed Nov 12 20:49:59 CST 2025
User: PC
Spectrometer: QEPB0408
触发模式: 0
积分时间 (秒): 1.000000E-2
Scans to average: 1
启用暗噪声校正: true
启用非线性校正: false
滑动平均宽度: 0
X轴模式: Wavelengths
Number of Pixels in Spectrum: 1044
>>>>>Begin Spectral Data<<<<<
220.843	4.25
221.644	4.25
222.444	6.25
223.244	4.25
224.045	8.25
224.845	7.25
225.645	7.25
226.445	6.25
227.245	6.25
228.045	8.25
228.845	6.25
229.645	6.25
230.444	8.25
231.244	10.25
232.043	9.25
232.843	9.25
233.642	8.25
234.442	7.25
235.241	11.25
236.04	11.25
236.839	13.25
237.638	12.25
238.437	9.25
239.236	9.25
240.035	14.25
240.833	12.25
241.632	14.25
242.43	11.25
243.229	10.25
244.027	15.25
244.826	13.25
245.624	11.25
246.422	16.25
247.22	14.25
248.018	15.25
248.816	13.25
249.614	15.25
250.412	17.25
251.21	18.25
252.007	14.25
252.805	16.25
253.602	18.25
254.4	18.25
255.197	19.25
255.994	20.25
256.791	18.25
257.589	22.25
258.386	23.25
259.183	22.25
259.979	21.25
260.776	22.25
261.573	21.25
262.37	22.25
263.166	26.25
263.963	27.25
264.759	25.25
265.556	26.25
266.352	28.25
267.148	29.25
267.944	27.25
268.74	31.25
269.536	29.25
270.332	31.25
271.128	35.25
271.924	31.25
272.719	31.25
273.515	32.25
274.311	34.25
275.106	33.25
275.901	35.25
276.697	35.25
277.492	36.25
278.287	33.25
279.082	37.25
279.877	35.25
280.672	32.25
281.467	36.25
282.262	34.25
283.056	36.25
283.851	34.25
284.646	38.25
285.44	34.25
286.234	34.25
287.029	31.25
287.823	33.25
288.617	33.25
289.411	29.25
290.205	33.25
290.999	30.25
291.793	30.25
292.587	30.25
293.381	33.25
294.174	31.25
294.968	29.25
295.761	32.25
296.555	30.25
297.348	24.25
298.141	26.25
298.935	28.25
299.728	28.25
300.521	27.25
301.314	23.25
302.107	24.25
302.899	24.25
303.692	24.25
304.485	25.25
305.277	24.25
306.07	23.25
306.862	21.25
307.655	20.25
308.447	20.25
309.239	22.25
310.031	22.25
310.823	20.25
311.615	20.25
312.407	17.25
313.199	19.25
313.991	17.25
314.783	21.25
315.574	16.25
316.366	14.25
317.157	16.25
317.949	16.25
318.74	16.25
319.531	14.25
320.322	15.25
321.113	14.25
321.904	14.25
322.695	12.25
323.486	15.25
324.277	12.25
325.068	13.25
325.858	14.25
326.649	13.25
327.439	11.25
328.23	13.25
329.02	13.25
329.81	12.25
330.6	13.25
331.391	13.25
332.181	11.25
332.971	9.25
333.76	13.25
334.55	12.25
335.34	13.25
336.13	13.25
336.919	12.25
337.709	13.25
338.498	12.25
339.287	12.25
340.077	12.25
340.866	12.25
341.655	10.25
342.444	10.25
343.233	12.25
344.022	11.25
344.811	12.25
345.6	9.25
346.388	11.25
347.177	12.25
347.965	10.25
348.754	15.25
349.542	12.25
350.33	10.25
351.119	10.25
351.907	10.25
352.695	11.25
353.483	11.25
354.271	10.25
355.059	8.25
355.846	10.25
356.634	10.25
357.422	9.25
358.209	10.25
358.997	10.25
359.784	10.25
360.571	11.25
361.359	10.25
362.146	11.25
362.933	9.25
363.72	11.25
364.507	9.25
365.294	10.25
366.081	9.25
366.867	8.25
367.654	12.25
368.44	11.25
369.227	10.25
370.013	10.25
370.8	9.25
371.586	13.25
372.372	9.25
373.158	13.25
373.944	10.25
374.73	8.25
375.516	9.25
376.302	8.25
377.088	11.25
377.873	11.25
378.659	11.25
379.445	6.25
380.23	11.25
381.015	11.25
381.801	10.25
382.586	10.25
383.371	11.25
384.156	12.25
384.941	12.25
385.726	11.25
386.511	13.25
387.296	9.25
388.08	8.25
388.865	11.25
389.649	11.25
390.434	10.25
391.218	11.25
392.003	11.25
392.787	11.25
393.571	12.25
394.355	11.25
395.139	14.25
395.923	11.25
396.707	12.25
397.491	15.25
398.274	16.25
399.058	14.25
399.842	11.25
400.625	12.25
401.408	15.25
402.192	14.25
402.975	13.25
403.758	15.25
404.541	13.25
405.324	17.25
406.107	16.25
406.89	14.25
407.673	17.25
408.456	13.25
409.238	15.25
410.021	16.25
410.803	15.25
411.586	14.25
412.368	16.25
413.151	19.25
413.933	17.25
414.715	19.25
415.497	17.25
416.279	19.25
417.061	17.25
417.843	17.25
418.624	20.25
419.406	20.25
420.188	21.25
420.969	23.25
421.751	23.25
422.532	21.25
423.313	21.25
424.095	25.25
424.876	22.25
425.657	27.25
426.438	25.25
427.219	29.25
428	27.25
428.78	24.25
429.561	29.25
430.342	32.25
431.122	33.25
431.903	32.25
432.683	34.25
433.464	35.25
434.244	35.25
435.024	38.25
435.804	44.25
436.584	41.25
437.364	43.25
438.144	49.25
438.924	51.25
439.704	54.25
440.483	56.25
441.263	62.25
442.042	60.25
442.822	69.25
443.601	79.25
444.38	81.25
445.16	86.25
445.939	93.25
446.718	99.25
447.497	112.25
448.276	124.25
449.054	133.25
449.833	142.25
450.612	164.25
451.391	176.25
452.169	193.25
452.948	213.25
453.726	241.25
454.504	264.25
455.282	295.25
456.061	334.25
456.839	363.25
457.617	404.25
458.395	460.25
459.172	505.25
459.95	568.25
460.728	622.25
461.506	706.25
462.283	783.25
463.061	881.25
463.838	984.25
464.615	1077.25
465.393	1205.25
466.17	1332.25
466.947	1495.25
467.724	1647.25
468.501	1850.25
469.278	2023.25
470.055	2242.25
470.831	2484.25
471.608	2719.25
472.385	3048.25
473.161	3363.25
473.938	3690.25
474.714	4048.25
475.49	4469.25
476.266	4868.25
477.043	5363.25
477.819	5860.25
478.595	6362.25
479.371	6959.25
480.146	7627.25
480.922	8295.25
481.698	9105.25
482.473	9905.25
483.249	10784.25
484.024	11713.25
484.8	12653.25
485.575	13790.25
486.35	14967.25
487.126	16186.25
487.901	17542.25
488.676	18899.25
489.451	20450.25
490.225	22021.25
491	23578.25
491.775	25244.25
492.55	27053.25
493.324	28791.25
494.099	30495.25
494.873	32333.25
495.647	34195.25
496.422	36050.25
497.196	37860.25
497.97	39517.25
498.744	40985.25
499.518	42564.25
500.292	43948.25
501.066	44951.25
501.839	45809.25
502.613	46583.25
503.387	47246.25
504.16	47538.25
504.934	47645.25
505.707	47546.25
506.48	47104.25
507.253	46468.25
508.027	45803.25
508.8	44762.25
509.573	43695.25
510.346	42606.25
511.118	41546.25
511.891	40281.25
512.664	38691.25
513.437	37275.25
514.209	35818.25
514.982	34469.25
515.754	32955.25
516.526	31600.25
517.298	30417.25
518.071	29167.25
518.843	28035.25
519.615	26920.25
520.387	25852.25
521.159	24868.25
521.93	23741.25
522.702	22789.25
523.474	21821.25
524.245	20879.25
525.017	19888.25
525.788	19118.25
526.56	18270.25
527.331	17435.25
528.102	16523.25
528.873	15764.25
529.644	15065.25
530.415	14306.25
531.186	13604.25
531.957	12853.25
532.728	12216.25
533.498	11559.25
534.269	10960.25
535.039	10389.25
535.81	9787.25
536.58	9266.25
537.351	8766.25
538.121	8310.25
538.891	7859.25
539.661	7451.25
540.431	7022.25
541.201	6697.25
541.971	6353.25
542.741	5976.25
543.51	5671.25
544.28	5416.25
545.05	5185.25
545.819	4925.25
546.588	4705.25
547.358	4467.25
548.127	4232.25
548.896	4014.25
549.665	3812.25
550.434	3616.25
551.203	3429.25
551.972	3251.25
552.741	3086.25
553.51	2902.25
554.278	2730.25
555.047	2566.25
555.815	2448.25
556.584	2316.25
557.352	2161.25
558.121	2061.25
558.889	1939.25
559.657	1835.25
560.425	1743.25
561.193	1645.25
561.961	1561.25
562.729	1463.25
563.496	1402.25
564.264	1321.25
565.032	1248.25
565.799	1170.25
566.567	1128.25
567.334	1066.25
568.101	999.25
568.869	935.25
569.636	904.25
570.403	831.25
571.17	793.25
571.937	748.25
572.704	710.25
573.471	666.25
574.237	633.25
575.004	592.25
575.771	561.25
576.537	526.25
577.303	497.25
578.07	461.25
578.836	443.25
579.602	414.25
580.368	397.25
581.134	380.25
581.9	359.25
582.666	342.25
583.432	325.25
584.198	311.25
584.964	296.25
585.729	278.25
586.495	266.25
587.26	250.25
588.025	239.25
588.791	229.25
589.556	214.25
590.321	203.25
591.086	193.25
591.851	184.25
592.616	177.25
593.381	165.25
594.146	155.25
594.911	155.25
595.675	145.25
596.44	144.25
597.204	134.25
597.969	127.25
598.733	126.25
599.497	120.25
600.261	112.25
601.025	107.25
601.79	104.25
602.553	98.25
603.317	93.25
604.081	92.25
604.845	84.25
605.609	84.25
606.372	83.25
607.136	77.25
607.899	72.25
608.662	74.25
609.426	68.25
610.189	68.25
610.952	61.25
611.715	63.25
612.478	57.25
613.241	58.25
614.004	57.25
614.767	54.25
615.529	51.25
616.292	49.25
617.055	47.25
617.817	45.25
618.579	47.25
619.342	43.25
620.104	43.25
620.866	40.25
621.628	39.25
622.39	37.25
623.152	35.25
623.914	35.25
624.676	35.25
625.438	35.25
626.199	33.25
626.961	31.25
627.722	31.25
628.484	30.25
629.245	27.25
630.006	27.25
630.768	29.25
631.529	27.25
632.29	24.25
633.051	25.25
633.812	26.25
634.573	25.25
635.333	23.25
636.094	22.25
636.855	22.25
637.615	20.25
638.376	23.25
639.136	22.25
639.896	19.25
640.657	16.25
641.417	19.25
642.177	18.25
642.937	19.25
643.697	17.25
644.457	19.25
645.216	16.25
645.976	16.25
646.736	14.25
647.495	14.25
648.255	14.25
649.014	15.25
649.774	18.25
650.533	13.25
651.292	14.25
652.051	13.25
652.81	14.25
653.569	15.25
654.328	15.25
655.087	13.25
655.846	12.25
656.604	15.25
657.363	10.25
658.121	14.25
658.88	14.25
659.638	11.25
660.397	10.25
661.155	12.25
661.913	13.25
662.671	10.25
663.429	11.25
664.187	11.25
664.945	8.25
665.703	11.25
666.46	10.25
667.218	9.25
667.976	11.25
668.733	8.25
669.49	11.25
670.248	11.25
671.005	9.25
671.762	12.25
672.519	9.25
673.276	8.25
674.033	8.25
674.79	11.25
675.547	10.25
676.304	10.25
677.06	8.25
677.817	9.25
678.574	9.25
679.33	8.25
680.086	8.25
680.843	10.25
681.599	8.25
682.355	8.25
683.111	7.25
683.867	7.25
684.623	8.25
685.379	11.25
686.135	8.25
686.89	4.25
687.646	8.25
688.402	9.25
689.157	9.25
689.912	7.25
690.668	7.25
691.423	9.25
692.178	7.25
692.933	7.25
693.688	10.25
694.443	10.25
695.198	8.25
695.953	7.25
696.708	8.25
697.462	6.25
698.217	7.25
698.972	7.25
699.726	7.25
700.48	5.25
701.235	7.25
701.989	6.25
702.743	6.25
703.497	7.25
704.251	6.25
705.005	8.25
705.759	9.25
706.513	7.25
707.266	7.25
708.02	9.25
708.774	7.25
709.527	7.25
710.28	9.25
711.034	10.25
711.787	7.25
712.54	5.25
713.293	8.25
714.046	9.25
714.799	9.25
715.552	6.25
716.305	7.25
717.058	9.25
717.81	7.25
718.563	9.25
719.315	10.25
720.068	9.25
720.82	7.25
721.573	6.25
722.325	8.25
723.077	9.25
723.829	9.25
724.581	10.25
725.333	9.25
726.085	8.25
726.836	9.25
727.588	8.25
728.34	7.25
729.091	8.25
729.843	11.25
730.594	10.25
731.346	9.25
732.097	9.25
732.848	10.25
733.599	7.25
734.35	10.25
735.101	13.25
735.852	9.25
736.603	8.25
737.354	11.25
738.104	11.25
738.855	9.25
739.605	8.25
740.356	11.25
741.106	8.25
741.856	10.25
742.607	12.25
743.357	12.25
744.107	14.25
744.857	11.25
745.607	9.25
746.357	8.25
747.106	13.25
747.856	11.25
748.606	10.25
749.355	12.25
750.105	12.25
750.854	10.25
751.603	11.25
752.353	11.25
753.102	11.25
753.851	11.25
754.6	11.25
755.349	12.25
756.098	12.25
756.847	12.25
757.595	11.25
758.344	11.25
759.093	11.25
759.841	13.25
760.589	13.25
761.338	13.25
762.086	14.25
762.834	11.25
763.582	13.25
764.331	12.25
765.079	13.25
765.826	13.25
766.574	15.25
767.322	14.25
768.07	15.25
768.817	16.25
769.565	14.25
770.312	11.25
771.06	15.25
771.807	14.25
772.554	15.25
773.302	15.25
774.049	15.25
774.796	15.25
775.543	19.25
776.29	13.25
777.036	15.25
777.783	15.25
778.53	17.25
779.276	15.25
780.023	15.25
780.769	16.25
781.516	15.25
782.262	18.25
783.008	18.25
783.754	14.25
784.5	17.25
785.246	14.25
785.992	15.25
786.738	14.25
787.484	16.25
788.23	18.25
788.975	15.25
789.721	15.25
790.466	14.25
791.212	15.25
791.957	18.25
792.702	16.25
793.447	14.25
794.193	12.25
794.938	14.25
795.683	13.25
796.427	14.25
797.172	13.25
797.917	13.25
798.662	14.25
799.406	10.25
800.151	13.25
800.895	13.25
801.64	11.25
802.384	14.25
803.128	10.25
803.872	11.25
804.616	11.25
805.36	12.25
806.104	11.25
806.848	9.25
807.592	12.25
808.336	12.25
809.079	10.25
809.823	9.25
810.566	10.25
811.31	10.25
812.053	11.25
812.796	10.25
813.539	10.25
814.283	10.25
815.026	9.25
815.769	7.25
816.511	10.25
817.254	6.25
817.997	10.25
818.74	10.25
819.482	11.25
820.225	7.25
820.967	6.25
821.71	8.25
822.452	9.25
823.194	5.25
823.936	9.25
824.678	6.25
825.42	10.25
826.162	7.25
826.904	8.25
827.646	7.25
828.388	7.25
829.129	5.25
829.871	7.25
830.612	7.25
831.354	6.25
832.095	9.25
832.836	7.25
833.577	5.25
834.319	6.25
835.06	3.25
835.801	6.25
836.542	6.25
837.282	6.25
838.023	6.25
838.764	5.25
839.504	7.25
840.245	4.25
840.985	7.25
841.726	7.25
842.466	6.25
843.206	6.25
843.946	5.25
844.687	5.25
845.427	5.25
846.166	4.25
846.906	4.25
847.646	5.25
848.386	6.25
849.125	3.25
849.865	8.25
850.605	6.25
851.344	5.25
852.083	4.25
852.823	6.25
853.562	5.25
854.301	5.25
855.04	4.25
855.779	5.25
856.518	3.25
857.257	6.25
857.995	3.25
858.734	3.25
859.473	6.25
860.211	3.25
860.95	4.25
861.688	2.25
862.426	3.25
863.165	4.25
863.903	3.25
864.641	2.25
865.379	3.25
866.117	3.25
866.855	2.25
867.593	1.25
868.33	1.25
869.068	3.25
869.806	2.25
870.543	2.25
871.28	1.25
872.018	1.25
872.755	1.25
873.492	5.25
874.229	3.25
874.967	3.25
875.703	3.25
876.44	1.25
877.177	2.25
877.914	-0.75
878.651	3.25
879.387	2.25
880.124	0.25
880.86	1.25
881.597	3.25
882.333	2.25
883.069	3.25
883.806	2.25
884.542	2.25
885.278	6.25
886.014	-0.75
886.749	2.25
887.485	0.25
888.221	2.25
888.957	3.25
889.692	-1.75
890.428	2.25
891.163	1.25
891.899	0.25
892.634	1.25
893.369	1.25
894.104	1.25
894.839	2.25
895.574	1.25
896.309	1.25
897.044	1.25
897.779	1.25
898.514	2.25
899.248	2.25
899.983	3.25
900.717	1.25
901.452	4.25
902.186	-0.75
902.92	0.25
903.654	0.25
904.389	4.25
905.123	0.25
905.857	2.25
906.59	-0.75
907.324	-0.75
908.058	3.25
908.792	1.25
909.525	2.25
910.259	2.25
910.992	1.25
911.726	2.25
912.459	0.25
913.192	2.25
913.925	0.25
914.658	1.25
915.391	3.25
916.124	0.25
916.857	2.25
917.59	-0.75
918.323	2.25
919.055	2.25
919.788	1.25
920.521	2.25
921.253	-0.75
921.985	1.25
922.718	3.25
923.45	0.25
924.182	1.25
924.914	0.25
925.646	0.25
926.378	0.25
927.11	-0.75
927.841	2.25
928.573	1.25
929.305	1.25
930.036	2.25
930.768	2.25
931.499	1.25
932.23	1.25
932.962	-0.75
933.693	-0.75
934.424	0.25
935.155	-0.75
935.886	1.25
936.617	-0.75
937.348	-0.75
938.078	-1.75
938.809	0.25
939.54	0.25
940.27	1.25
941.001	1.25
941.731	0.25
942.461	1.25
943.191	3.25
943.922	-0.75
944.652	1.25
945.382	1.25
946.112	2.25
946.841	0.25
947.571	0.25
948.301	1.25
949.031	3.25
949.76	0.25
950.49	3.25
951.219	-1.75
951.948	-0.75
952.678	0.25
953.407	1.25
954.136	1.25
954.865	1.25
955.594	1.25
956.323	-0.75
957.052	3.25
957.78	-0.75
958.509	1.25
959.238	1.25
959.966	-0.75
960.695	0.25
961.423	0.25
962.151	3.25
962.88	1.25
963.608	2.25
964.336	1.25
965.064	-0.75
965.792	2.25
966.52	-0.75
967.247	-0.75
967.975	1.25
968.703	1.25
969.43	1.25
970.158	0.25
970.885	2.25
971.613	1.25
972.34	0.25
973.067	0.25
973.794	-0.75
974.521	0.25
975.248	0.25
975.975	1.25
976.702	2.25
977.429	1.25
978.156	2.25
978.882	0.25
979.609	2.25
980.335	-0.75
981.062	0.25
981.788	2.25
982.514	0.25
983.24	0.25
983.967	2.25
984.693	2.25
985.419	2.25
986.144	1.25
986.87	1.25
987.596	1.25
988.322	2.25
989.047	2.25
989.773	3.25
990.498	0.25
991.224	2.25
991.949	1.25
992.674	1.25
993.399	1.25
994.124	0.25
994.849	0.25
995.574	1.25
996.299	-0.75
997.024	1.25
997.749	0.25
998.473	0.25
999.198	1.25
999.922	1.25
1000.647	2.25
1001.371	3.25
1002.095	-2.75
1002.82	-0.75
1003.544	0.25
1004.268	2.25
1004.992	3.25
1005.716	6.25
1006.439	5.25
1007.163	3.25
1007.887	5.25
1008.611	-0.75
1009.334	2.25
1010.058	0.25
1010.781	3.25
1011.504	1.25
1012.228	1.25
1012.951	1.25
1013.674	-1.75
1014.397	-0.75
1015.12	1.25
