节点500_705_QEPB04081__637__20-54-59-780.txt的数据

Date: Wed Nov 12 20:54:59 CST 2025
User: PC
Spectrometer: QEPB0408
触发模式: 0
积分时间 (秒): 1.000000E-2
Scans to average: 1
启用暗噪声校正: true
启用非线性校正: false
滑动平均宽度: 0
X轴模式: Wavelengths
Number of Pixels in Spectrum: 1044
>>>>>Begin Spectral Data<<<<<
220.843	6.25
221.644	4.25
222.444	6.25
223.244	5.25
224.045	6.25
224.845	8.25
225.645	7.25
226.445	8.25
227.245	5.25
228.045	8.25
228.845	5.25
229.645	8.25
230.444	7.25
231.244	8.25
232.043	11.25
232.843	8.25
233.642	8.25
234.442	9.25
235.241	8.25
236.04	10.25
236.839	11.25
237.638	11.25
238.437	11.25
239.236	12.25
240.035	11.25
240.833	10.25
241.632	13.25
242.43	13.25
243.229	12.25
244.027	12.25
244.826	12.25
245.624	11.25
246.422	13.25
247.22	14.25
248.018	12.25
248.816	14.25
249.614	12.25
250.412	12.25
251.21	13.25
252.007	15.25
252.805	14.25
253.602	16.25
254.4	15.25
255.197	16.25
255.994	21.25
256.791	19.25
257.589	22.25
258.386	19.25
259.183	19.25
259.979	18.25
260.776	20.25
261.573	21.25
262.37	23.25
263.166	20.25
263.963	23.25
264.759	19.25
265.556	23.25
266.352	24.25
267.148	26.25
267.944	25.25
268.74	26.25
269.536	27.25
270.332	26.25
271.128	27.25
271.924	26.25
272.719	28.25
273.515	29.25
274.311	31.25
275.106	27.25
275.901	31.25
276.697	31.25
277.492	32.25
278.287	33.25
279.082	28.25
279.877	30.25
280.672	30.25
281.467	33.25
282.262	30.25
283.056	30.25
283.851	31.25
284.646	32.25
285.44	29.25
286.234	29.25
287.029	31.25
287.823	32.25
288.617	29.25
289.411	32.25
290.205	30.25
290.999	29.25
291.793	29.25
292.587	32.25
293.381	30.25
294.174	29.25
294.968	29.25
295.761	26.25
296.555	27.25
297.348	27.25
298.141	26.25
298.935	26.25
299.728	23.25
300.521	25.25
301.314	22.25
302.107	22.25
302.899	23.25
303.692	21.25
304.485	23.25
305.277	22.25
306.07	23.25
306.862	20.25
307.655	23.25
308.447	23.25
309.239	20.25
310.031	21.25
310.823	18.25
311.615	17.25
312.407	17.25
313.199	19.25
313.991	18.25
314.783	15.25
315.574	15.25
316.366	15.25
317.157	15.25
317.949	15.25
318.74	14.25
319.531	13.25
320.322	14.25
321.113	13.25
321.904	13.25
322.695	13.25
323.486	15.25
324.277	11.25
325.068	14.25
325.858	11.25
326.649	14.25
327.439	12.25
328.23	11.25
329.02	14.25
329.81	13.25
330.6	11.25
331.391	13.25
332.181	13.25
332.971	14.25
333.76	11.25
334.55	11.25
335.34	12.25
336.13	13.25
336.919	9.25
337.709	12.25
338.498	11.25
339.287	9.25
340.077	12.25
340.866	11.25
341.655	13.25
342.444	11.25
343.233	11.25
344.022	13.25
344.811	11.25
345.6	11.25
346.388	11.25
347.177	10.25
347.965	11.25
348.754	11.25
349.542	10.25
350.33	9.25
351.119	10.25
351.907	11.25
352.695	8.25
353.483	12.25
354.271	9.25
355.059	11.25
355.846	11.25
356.634	12.25
357.422	10.25
358.209	8.25
358.997	10.25
359.784	11.25
360.571	12.25
361.359	11.25
362.146	9.25
362.933	11.25
363.72	8.25
364.507	9.25
365.294	10.25
366.081	9.25
366.867	9.25
367.654	9.25
368.44	11.25
369.227	8.25
370.013	10.25
370.8	9.25
371.586	10.25
372.372	7.25
373.158	10.25
373.944	10.25
374.73	9.25
375.516	9.25
376.302	9.25
377.088	9.25
377.873	9.25
378.659	8.25
379.445	9.25
380.23	10.25
381.015	9.25
381.801	9.25
382.586	9.25
383.371	11.25
384.156	11.25
384.941	10.25
385.726	11.25
386.511	10.25
387.296	9.25
388.08	11.25
388.865	11.25
389.649	10.25
390.434	13.25
391.218	13.25
392.003	9.25
392.787	11.25
393.571	12.25
394.355	13.25
395.139	11.25
395.923	13.25
396.707	14.25
397.491	12.25
398.274	14.25
399.058	14.25
399.842	11.25
400.625	12.25
401.408	12.25
402.192	12.25
402.975	13.25
403.758	14.25
404.541	15.25
405.324	14.25
406.107	14.25
406.89	14.25
407.673	15.25
408.456	15.25
409.238	14.25
410.021	14.25
410.803	18.25
411.586	15.25
412.368	15.25
413.151	15.25
413.933	18.25
414.715	15.25
415.497	18.25
416.279	19.25
417.061	18.25
417.843	21.25
418.624	20.25
419.406	19.25
420.188	22.25
420.969	20.25
421.751	19.25
422.532	22.25
423.313	22.25
424.095	22.25
424.876	25.25
425.657	24.25
426.438	26.25
427.219	24.25
428	29.25
428.78	28.25
429.561	24.25
430.342	31.25
431.122	30.25
431.903	35.25
432.683	33.25
433.464	35.25
434.244	39.25
435.024	39.25
435.804	42.25
436.584	45.25
437.364	46.25
438.144	45.25
438.924	54.25
439.704	52.25
440.483	57.25
441.263	61.25
442.042	65.25
442.822	73.25
443.601	79.25
444.38	85.25
445.16	91.25
445.939	98.25
446.718	106.25
447.497	118.25
448.276	131.25
449.054	143.25
449.833	159.25
450.612	169.25
451.391	189.25
452.169	210.25
452.948	227.25
453.726	259.25
454.504	291.25
455.282	317.25
456.061	353.25
456.839	397.25
457.617	444.25
458.395	488.25
459.172	541.25
459.95	611.25
460.728	674.25
461.506	751.25
462.283	840.25
463.061	913.25
463.838	1022.25
464.615	1139.25
465.393	1253.25
466.17	1391.25
466.947	1531.25
467.724	1692.25
468.501	1872.25
469.278	2072.25
470.055	2278.25
470.831	2508.25
471.608	2754.25
472.385	3017.25
473.161	3288.25
473.938	3619.25
474.714	3969.25
475.49	4319.25
476.266	4739.25
477.043	5122.25
477.819	5542.25
478.595	6084.25
479.371	6598.25
480.146	7146.25
480.922	7744.25
481.698	8397.25
482.473	9073.25
483.249	9866.25
484.024	10632.25
484.8	11428.25
485.575	12350.25
486.35	13349.25
487.126	14404.25
487.901	15479.25
488.676	16628.25
489.451	17841.25
490.225	19151.25
491	20496.25
491.775	21818.25
492.55	23315.25
493.324	24781.25
494.099	26365.25
494.873	27941.25
495.647	29501.25
496.422	30998.25
497.196	32675.25
497.97	34176.25
498.744	35630.25
499.518	37184.25
500.292	38539.25
501.066	39564.25
501.839	40574.25
502.613	41510.25
503.387	42289.25
504.16	42976.25
504.934	43365.25
505.707	43683.25
506.48	43570.25
507.253	43334.25
508.027	43154.25
508.8	42570.25
509.573	41909.25
510.346	41181.25
511.118	40359.25
511.891	39351.25
512.664	38148.25
513.437	36876.25
514.209	35798.25
514.982	34493.25
515.754	33244.25
516.526	31952.25
517.298	30810.25
518.071	29619.25
518.843	28489.25
519.615	27375.25
520.387	26296.25
521.159	25288.25
521.93	24242.25
522.702	23273.25
523.474	22259.25
524.245	21387.25
525.017	20487.25
525.788	19625.25
526.56	18861.25
527.331	18042.25
528.102	17168.25
528.873	16377.25
529.644	15631.25
530.415	14918.25
531.186	14245.25
531.957	13563.25
532.728	12893.25
533.498	12210.25
534.269	11611.25
535.039	11011.25
535.81	10445.25
536.58	9852.25
537.351	9367.25
538.121	8882.25
538.891	8390.25
539.661	7955.25
540.431	7530.25
541.201	7151.25
541.971	6756.25
542.741	6387.25
543.51	6080.25
544.28	5803.25
545.05	5507.25
545.819	5268.25
546.588	5001.25
547.358	4776.25
548.127	4554.25
548.896	4306.25
549.665	4113.25
550.434	3892.25
551.203	3679.25
551.972	3519.25
552.741	3329.25
553.51	3163.25
554.278	2970.25
555.047	2814.25
555.815	2661.25
556.584	2505.25
557.352	2401.25
558.121	2253.25
558.889	2133.25
559.657	2006.25
560.425	1900.25
561.193	1807.25
561.961	1722.25
562.729	1616.25
563.496	1529.25
564.264	1451.25
565.032	1373.25
565.799	1291.25
566.567	1230.25
567.334	1149.25
568.101	1086.25
568.869	1032.25
569.636	980.25
570.403	917.25
571.17	864.25
571.937	814.25
572.704	776.25
573.471	729.25
574.237	688.25
575.004	646.25
575.771	614.25
576.537	572.25
577.303	546.25
578.07	513.25
578.836	485.25
579.602	461.25
580.368	442.25
581.134	415.25
581.9	398.25
582.666	381.25
583.432	361.25
584.198	341.25
584.964	321.25
585.729	303.25
586.495	283.25
587.26	272.25
588.025	259.25
588.791	243.25
589.556	230.25
590.321	225.25
591.086	201.25
591.851	198.25
592.616	187.25
593.381	184.25
594.146	168.25
594.911	163.25
595.675	159.25
596.44	152.25
597.204	141.25
597.969	141.25
598.733	132.25
599.497	127.25
600.261	122.25
601.025	107.25
601.79	115.25
602.553	107.25
603.317	102.25
604.081	95.25
604.845	91.25
605.609	87.25
606.372	85.25
607.136	83.25
607.899	76.25
608.662	75.25
609.426	74.25
610.189	70.25
610.952	67.25
611.715	63.25
612.478	63.25
613.241	59.25
614.004	58.25
614.767	59.25
615.529	55.25
616.292	55.25
617.055	50.25
617.817	47.25
618.579	48.25
619.342	45.25
620.104	49.25
620.866	43.25
621.628	40.25
622.39	41.25
623.152	40.25
623.914	37.25
624.676	38.25
625.438	38.25
626.199	34.25
626.961	33.25
627.722	33.25
628.484	30.25
629.245	30.25
630.006	30.25
630.768	29.25
631.529	26.25
632.29	30.25
633.051	24.25
633.812	25.25
634.573	24.25
635.333	27.25
636.094	21.25
636.855	23.25
637.615	22.25
638.376	23.25
639.136	19.25
639.896	18.25
640.657	19.25
641.417	19.25
642.177	19.25
642.937	19.25
643.697	20.25
644.457	17.25
645.216	19.25
645.976	16.25
646.736	19.25
647.495	15.25
648.255	14.25
649.014	17.25
649.774	15.25
650.533	12.25
651.292	17.25
652.051	11.25
652.81	14.25
653.569	14.25
654.328	13.25
655.087	14.25
655.846	11.25
656.604	11.25
657.363	12.25
658.121	13.25
658.88	13.25
659.638	12.25
660.397	13.25
661.155	10.25
661.913	11.25
662.671	11.25
663.429	12.25
664.187	12.25
664.945	10.25
665.703	11.25
666.46	9.25
667.218	8.25
667.976	7.25
668.733	11.25
669.49	11.25
670.248	9.25
671.005	9.25
671.762	11.25
672.519	8.25
673.276	10.25
674.033	10.25
674.79	10.25
675.547	9.25
676.304	7.25
677.06	6.25
677.817	10.25
678.574	7.25
679.33	7.25
680.086	8.25
680.843	9.25
681.599	11.25
682.355	9.25
683.111	9.25
683.867	7.25
684.623	7.25
685.379	8.25
686.135	8.25
686.89	5.25
687.646	9.25
688.402	7.25
689.157	9.25
689.912	8.25
690.668	10.25
691.423	7.25
692.178	9.25
692.933	6.25
693.688	9.25
694.443	9.25
695.198	8.25
695.953	9.25
696.708	7.25
697.462	8.25
698.217	8.25
698.972	5.25
699.726	8.25
700.48	5.25
701.235	9.25
701.989	7.25
702.743	9.25
703.497	9.25
704.251	4.25
705.005	8.25
705.759	6.25
706.513	7.25
707.266	8.25
708.02	8.25
708.774	9.25
709.527	5.25
710.28	10.25
711.034	8.25
711.787	8.25
712.54	8.25
713.293	5.25
714.046	8.25
714.799	9.25
715.552	4.25
716.305	6.25
717.058	9.25
717.81	7.25
718.563	8.25
719.315	7.25
720.068	7.25
720.82	7.25
721.573	6.25
722.325	8.25
723.077	8.25
723.829	5.25
724.581	7.25
725.333	7.25
726.085	9.25
726.836	9.25
727.588	8.25
728.34	9.25
729.091	8.25
729.843	7.25
730.594	11.25
731.346	8.25
732.097	8.25
732.848	8.25
733.599	9.25
734.35	7.25
735.101	9.25
735.852	9.25
736.603	9.25
737.354	12.25
738.104	9.25
738.855	11.25
739.605	9.25
740.356	9.25
741.106	7.25
741.856	10.25
742.607	10.25
743.357	9.25
744.107	9.25
744.857	10.25
745.607	9.25
746.357	10.25
747.106	9.25
747.856	9.25
748.606	9.25
749.355	10.25
750.105	10.25
750.854	9.25
751.603	10.25
752.353	11.25
753.102	11.25
753.851	10.25
754.6	10.25
755.349	11.25
756.098	11.25
756.847	11.25
757.595	12.25
758.344	8.25
759.093	12.25
759.841	9.25
760.589	11.25
761.338	8.25
762.086	10.25
762.834	11.25
763.582	10.25
764.331	12.25
765.079	10.25
765.826	11.25
766.574	12.25
767.322	13.25
768.07	14.25
768.817	12.25
769.565	14.25
770.312	15.25
771.06	12.25
771.807	14.25
772.554	12.25
773.302	15.25
774.049	11.25
774.796	15.25
775.543	15.25
776.29	15.25
777.036	14.25
777.783	12.25
778.53	16.25
779.276	11.25
780.023	14.25
780.769	16.25
781.516	13.25
782.262	15.25
783.008	16.25
783.754	15.25
784.5	13.25
785.246	15.25
785.992	13.25
786.738	15.25
787.484	16.25
788.23	14.25
788.975	12.25
789.721	15.25
790.466	15.25
791.212	14.25
791.957	12.25
792.702	11.25
793.447	14.25
794.193	11.25
794.938	9.25
795.683	13.25
796.427	13.25
797.172	9.25
797.917	12.25
798.662	12.25
799.406	13.25
800.151	12.25
800.895	9.25
801.64	13.25
802.384	10.25
803.128	13.25
803.872	11.25
804.616	10.25
805.36	11.25
806.104	11.25
806.848	9.25
807.592	10.25
808.336	10.25
809.079	11.25
809.823	10.25
810.566	6.25
811.31	11.25
812.053	11.25
812.796	10.25
813.539	12.25
814.283	8.25
815.026	5.25
815.769	10.25
816.511	8.25
817.254	10.25
817.997	8.25
818.74	7.25
819.482	8.25
820.225	6.25
820.967	7.25
821.71	6.25
822.452	7.25
823.194	5.25
823.936	8.25
824.678	8.25
825.42	5.25
826.162	5.25
826.904	7.25
827.646	8.25
828.388	6.25
829.129	6.25
829.871	7.25
830.612	5.25
831.354	5.25
832.095	8.25
832.836	7.25
833.577	8.25
834.319	3.25
835.06	3.25
835.801	3.25
836.542	8.25
837.282	9.25
838.023	5.25
838.764	5.25
839.504	8.25
840.245	5.25
840.985	6.25
841.726	5.25
842.466	7.25
843.206	3.25
843.946	6.25
844.687	7.25
845.427	4.25
846.166	4.25
846.906	4.25
847.646	5.25
848.386	4.25
849.125	5.25
849.865	4.25
850.605	7.25
851.344	5.25
852.083	6.25
852.823	6.25
853.562	4.25
854.301	2.25
855.04	5.25
855.779	5.25
856.518	4.25
857.257	3.25
857.995	3.25
858.734	4.25
859.473	3.25
860.211	4.25
860.95	4.25
861.688	5.25
862.426	3.25
863.165	4.25
863.903	5.25
864.641	3.25
865.379	5.25
866.117	0.25
866.855	4.25
867.593	4.25
868.33	6.25
869.068	1.25
869.806	1.25
870.543	3.25
871.28	2.25
872.018	2.25
872.755	2.25
873.492	2.25
874.229	3.25
874.967	1.25
875.703	3.25
876.44	2.25
877.177	3.25
877.914	1.25
878.651	1.25
879.387	2.25
880.124	0.25
880.86	1.25
881.597	0.25
882.333	2.25
883.069	1.25
883.806	1.25
884.542	1.25
885.278	1.25
886.014	3.25
886.749	1.25
887.485	3.25
888.221	1.25
888.957	0.25
889.692	1.25
890.428	1.25
891.163	5.25
891.899	2.25
892.634	1.25
893.369	3.25
894.104	1.25
894.839	1.25
895.574	3.25
896.309	2.25
897.044	0.25
897.779	-0.75
898.514	1.25
899.248	3.25
899.983	2.25
900.717	-0.75
901.452	2.25
902.186	2.25
902.92	2.25
903.654	2.25
904.389	0.25
905.123	2.25
905.857	0.25
906.59	0.25
907.324	2.25
908.058	-0.75
908.792	0.25
909.525	1.25
910.259	0.25
910.992	3.25
911.726	0.25
912.459	1.25
913.192	-0.75
913.925	1.25
914.658	0.25
915.391	1.25
916.124	1.25
916.857	-0.75
917.59	3.25
918.323	0.25
919.055	0.25
919.788	1.25
920.521	1.25
921.253	1.25
921.985	-0.75
922.718	3.25
923.45	0.25
924.182	2.25
924.914	0.25
925.646	0.25
926.378	1.25
927.11	0.25
927.841	0.25
928.573	2.25
929.305	1.25
930.036	-0.75
930.768	0.25
931.499	2.25
932.23	0.25
932.962	1.25
933.693	0.25
934.424	-0.75
935.155	2.25
935.886	2.25
936.617	-0.75
937.348	1.25
938.078	1.25
938.809	2.25
939.54	3.25
940.27	0.25
941.001	-0.75
941.731	1.25
942.461	3.25
943.191	0.25
943.922	0.25
944.652	0.25
945.382	-0.75
946.112	2.25
946.841	0.25
947.571	0.25
948.301	2.25
949.031	0.25
949.76	-0.75
950.49	1.25
951.219	1.25
951.948	0.25
952.678	0.25
953.407	0.25
954.136	2.25
954.865	2.25
955.594	1.25
956.323	2.25
957.052	0.25
957.78	1.25
958.509	2.25
959.238	0.25
959.966	0.25
960.695	1.25
961.423	1.25
962.151	-0.75
962.88	-0.75
963.608	-0.75
964.336	0.25
965.064	1.25
965.792	1.25
966.52	0.25
967.247	-0.75
967.975	1.25
968.703	-1.75
969.43	0.25
970.158	3.25
970.885	1.25
971.613	1.25
972.34	0.25
973.067	1.25
973.794	-2.75
974.521	0.25
975.248	1.25
975.975	0.25
976.702	0.25
977.429	-1.75
978.156	3.25
978.882	1.25
979.609	1.25
980.335	1.25
981.062	-0.75
981.788	1.25
982.514	1.25
983.24	3.25
983.967	0.25
984.693	0.25
985.419	1.25
986.144	-0.75
986.87	-0.75
987.596	0.25
988.322	0.25
989.047	-0.75
989.773	3.25
990.498	-1.75
991.224	3.25
991.949	0.25
992.674	1.25
993.399	0.25
994.124	0.25
994.849	-0.75
995.574	2.25
996.299	0.25
997.024	-0.75
997.749	1.25
998.473	-0.75
999.198	2.25
999.922	1.25
1000.647	2.25
1001.371	3.25
1002.095	-2.75
1002.82	-0.75
1003.544	1.25
1004.268	3.25
1004.992	4.25
1005.716	6.25
1006.439	2.25
1007.163	4.25
1007.887	6.25
1008.611	-0.75
1009.334	1.25
1010.058	2.25
1010.781	1.25
1011.504	2.25
1012.228	0.25
1012.951	1.25
1013.674	1.25
1014.397	-0.75
1015.12	-2.75
