节点500_705_QEPB04081__469__20-52-33-769.txt的数据

Date: Wed Nov 12 20:52:33 CST 2025
User: PC
Spectrometer: QEPB0408
触发模式: 0
积分时间 (秒): 1.000000E-2
Scans to average: 1
启用暗噪声校正: true
启用非线性校正: false
滑动平均宽度: 0
X轴模式: Wavelengths
Number of Pixels in Spectrum: 1044
>>>>>Begin Spectral Data<<<<<
220.843	6.62
221.644	6.62
222.444	6.62
223.244	3.62
224.045	6.62
224.845	7.62
225.645	5.62
226.445	6.62
227.245	7.62
228.045	8.62
228.845	8.62
229.645	9.62
230.444	8.62
231.244	8.62
232.043	9.62
232.843	7.62
233.642	9.62
234.442	7.62
235.241	9.62
236.04	9.62
236.839	8.62
237.638	9.62
238.437	13.62
239.236	10.62
240.035	14.62
240.833	12.62
241.632	10.62
242.43	11.62
243.229	13.62
244.027	13.62
244.826	12.62
245.624	11.62
246.422	13.62
247.22	15.62
248.018	13.62
248.816	15.62
249.614	15.62
250.412	13.62
251.21	15.62
252.007	16.62
252.805	15.62
253.602	17.62
254.4	17.62
255.197	18.62
255.994	18.62
256.791	19.62
257.589	20.62
258.386	17.62
259.183	20.62
259.979	23.62
260.776	22.62
261.573	23.62
262.37	21.62
263.166	23.62
263.963	23.62
264.759	25.62
265.556	25.62
266.352	26.62
267.148	28.62
267.944	29.62
268.74	29.62
269.536	25.62
270.332	28.62
271.128	30.62
271.924	27.62
272.719	31.62
273.515	31.62
274.311	32.62
275.106	31.62
275.901	33.62
276.697	33.62
277.492	34.62
278.287	29.62
279.082	32.62
279.877	33.62
280.672	38.62
281.467	33.62
282.262	33.62
283.056	34.62
283.851	34.62
284.646	31.62
285.44	34.62
286.234	34.62
287.029	32.62
287.823	32.62
288.617	33.62
289.411	31.62
290.205	34.62
290.999	30.62
291.793	32.62
292.587	30.62
293.381	30.62
294.174	29.62
294.968	30.62
295.761	25.62
296.555	29.62
297.348	25.62
298.141	31.62
298.935	29.62
299.728	29.62
300.521	26.62
301.314	25.62
302.107	23.62
302.899	24.62
303.692	23.62
304.485	21.62
305.277	25.62
306.07	23.62
306.862	22.62
307.655	23.62
308.447	22.62
309.239	20.62
310.031	22.62
310.823	19.62
311.615	19.62
312.407	18.62
313.199	18.62
313.991	17.62
314.783	19.62
315.574	17.62
316.366	16.62
317.157	19.62
317.949	14.62
318.74	17.62
319.531	15.62
320.322	13.62
321.113	17.62
321.904	13.62
322.695	17.62
323.486	15.62
324.277	13.62
325.068	12.62
325.858	10.62
326.649	13.62
327.439	11.62
328.23	14.62
329.02	10.62
329.81	16.62
330.6	14.62
331.391	13.62
332.181	14.62
332.971	12.62
333.76	15.62
334.55	11.62
335.34	13.62
336.13	14.62
336.919	10.62
337.709	14.62
338.498	14.62
339.287	10.62
340.077	9.62
340.866	12.62
341.655	14.62
342.444	11.62
343.233	15.62
344.022	12.62
344.811	14.62
345.6	15.62
346.388	9.62
347.177	11.62
347.965	12.62
348.754	11.62
349.542	9.62
350.33	12.62
351.119	12.62
351.907	11.62
352.695	13.62
353.483	13.62
354.271	10.62
355.059	11.62
355.846	11.62
356.634	10.62
357.422	11.62
358.209	12.62
358.997	10.62
359.784	9.62
360.571	10.62
361.359	9.62
362.146	11.62
362.933	11.62
363.72	8.62
364.507	12.62
365.294	9.62
366.081	11.62
366.867	10.62
367.654	11.62
368.44	9.62
369.227	9.62
370.013	10.62
370.8	10.62
371.586	12.62
372.372	9.62
373.158	10.62
373.944	8.62
374.73	9.62
375.516	7.62
376.302	8.62
377.088	11.62
377.873	10.62
378.659	8.62
379.445	9.62
380.23	8.62
381.015	11.62
381.801	10.62
382.586	10.62
383.371	9.62
384.156	11.62
384.941	11.62
385.726	11.62
386.511	13.62
387.296	11.62
388.08	12.62
388.865	13.62
389.649	11.62
390.434	11.62
391.218	13.62
392.003	12.62
392.787	12.62
393.571	11.62
394.355	12.62
395.139	12.62
395.923	13.62
396.707	10.62
397.491	12.62
398.274	15.62
399.058	12.62
399.842	15.62
400.625	10.62
401.408	14.62
402.192	15.62
402.975	14.62
403.758	15.62
404.541	14.62
405.324	15.62
406.107	13.62
406.89	15.62
407.673	15.62
408.456	15.62
409.238	15.62
410.021	16.62
410.803	15.62
411.586	15.62
412.368	15.62
413.151	16.62
413.933	17.62
414.715	18.62
415.497	17.62
416.279	17.62
417.061	18.62
417.843	21.62
418.624	19.62
419.406	19.62
420.188	21.62
420.969	19.62
421.751	22.62
422.532	24.62
423.313	22.62
424.095	25.62
424.876	26.62
425.657	24.62
426.438	24.62
427.219	22.62
428	25.62
428.78	27.62
429.561	28.62
430.342	31.62
431.122	30.62
431.903	31.62
432.683	33.62
433.464	34.62
434.244	35.62
435.024	40.62
435.804	43.62
436.584	42.62
437.364	46.62
438.144	48.62
438.924	50.62
439.704	56.62
440.483	59.62
441.263	65.62
442.042	63.62
442.822	73.62
443.601	74.62
444.38	83.62
445.16	89.62
445.939	98.62
446.718	107.62
447.497	119.62
448.276	127.62
449.054	138.62
449.833	147.62
450.612	166.62
451.391	189.62
452.169	206.62
452.948	222.62
453.726	251.62
454.504	278.62
455.282	307.62
456.061	348.62
456.839	383.62
457.617	427.62
458.395	468.62
459.172	524.62
459.95	595.62
460.728	649.62
461.506	724.62
462.283	805.62
463.061	911.62
463.838	999.62
464.615	1117.62
465.393	1243.62
466.17	1377.62
466.947	1517.62
467.724	1684.62
468.501	1867.62
469.278	2056.62
470.055	2265.62
470.831	2509.62
471.608	2747.62
472.385	3023.62
473.161	3331.62
473.938	3629.62
474.714	3985.62
475.49	4377.62
476.266	4798.62
477.043	5232.62
477.819	5717.62
478.595	6201.62
479.371	6792.62
480.146	7335.62
480.922	7970.62
481.698	8694.62
482.473	9415.62
483.249	10212.62
484.024	11067.62
484.8	12009.62
485.575	12967.62
486.35	14027.62
487.126	15144.62
487.901	16267.62
488.676	17576.62
489.451	18968.62
490.225	20315.62
491	21724.62
491.775	23215.62
492.55	24811.62
493.324	26397.62
494.099	28064.62
494.873	29804.62
495.647	31371.62
496.422	33071.62
497.196	34792.62
497.97	36383.62
498.744	37835.62
499.518	39489.62
500.292	40823.62
501.066	41859.62
501.839	42810.62
502.613	43745.62
503.387	44374.62
504.16	45074.62
504.934	45190.62
505.707	45390.62
506.48	45122.62
507.253	44859.62
508.027	44433.62
508.8	43697.62
509.573	42868.62
510.346	41939.62
511.118	41038.62
511.891	39966.62
512.664	38513.62
513.437	37205.62
514.209	35961.62
514.982	34562.62
515.754	33216.62
516.526	31956.62
517.298	30758.62
518.071	29544.62
518.843	28356.62
519.615	27216.62
520.387	26117.62
521.159	25179.62
521.93	24095.62
522.702	23130.62
523.474	22158.62
524.245	21250.62
525.017	20315.62
525.788	19472.62
526.56	18642.62
527.331	17846.62
528.102	16967.62
528.873	16150.62
529.644	15407.62
530.415	14694.62
531.186	14009.62
531.957	13309.62
532.728	12610.62
533.498	12018.62
534.269	11387.62
535.039	10786.62
535.81	10167.62
536.58	9652.62
537.351	9124.62
538.121	8678.62
538.891	8207.62
539.661	7774.62
540.431	7339.62
541.201	6937.62
541.971	6614.62
542.741	6231.62
543.51	5916.62
544.28	5652.62
545.05	5385.62
545.819	5112.62
546.588	4910.62
547.358	4651.62
548.127	4422.62
548.896	4215.62
549.665	3996.62
550.434	3780.62
551.203	3604.62
551.972	3404.62
552.741	3231.62
553.51	3033.62
554.278	2876.62
555.047	2741.62
555.815	2585.62
556.584	2427.62
557.352	2316.62
558.121	2163.62
558.889	2071.62
559.657	1947.62
560.425	1850.62
561.193	1727.62
561.961	1647.62
562.729	1569.62
563.496	1468.62
564.264	1402.62
565.032	1322.62
565.799	1255.62
566.567	1190.62
567.334	1108.62
568.101	1064.62
568.869	994.62
569.636	949.62
570.403	878.62
571.17	833.62
571.937	802.62
572.704	761.62
573.471	700.62
574.237	672.62
575.004	631.62
575.771	593.62
576.537	555.62
577.303	527.62
578.07	500.62
578.836	468.62
579.602	442.62
580.368	426.62
581.134	403.62
581.9	386.62
582.666	369.62
583.432	350.62
584.198	331.62
584.964	309.62
585.729	296.62
586.495	280.62
587.26	262.62
588.025	252.62
588.791	237.62
589.556	227.62
590.321	216.62
591.086	199.62
591.851	199.62
592.616	190.62
593.381	170.62
594.146	168.62
594.911	160.62
595.675	150.62
596.44	147.62
597.204	140.62
597.969	137.62
598.733	128.62
599.497	122.62
600.261	117.62
601.025	106.62
601.79	109.62
602.553	103.62
603.317	92.62
604.081	97.62
604.845	91.62
605.609	91.62
606.372	83.62
607.136	80.62
607.899	78.62
608.662	73.62
609.426	72.62
610.189	67.62
610.952	68.62
611.715	64.62
612.478	59.62
613.241	58.62
614.004	59.62
614.767	53.62
615.529	51.62
616.292	55.62
617.055	47.62
617.817	47.62
618.579	50.62
619.342	46.62
620.104	46.62
620.866	39.62
621.628	38.62
622.39	39.62
623.152	39.62
623.914	40.62
624.676	35.62
625.438	36.62
626.199	35.62
626.961	34.62
627.722	29.62
628.484	31.62
629.245	32.62
630.006	27.62
630.768	29.62
631.529	28.62
632.29	24.62
633.051	28.62
633.812	27.62
634.573	25.62
635.333	25.62
636.094	21.62
636.855	24.62
637.615	22.62
638.376	24.62
639.136	21.62
639.896	21.62
640.657	19.62
641.417	21.62
642.177	18.62
642.937	17.62
643.697	19.62
644.457	17.62
645.216	17.62
645.976	18.62
646.736	16.62
647.495	18.62
648.255	14.62
649.014	14.62
649.774	18.62
650.533	16.62
651.292	19.62
652.051	13.62
652.81	15.62
653.569	13.62
654.328	11.62
655.087	12.62
655.846	12.62
656.604	14.62
657.363	11.62
658.121	12.62
658.88	13.62
659.638	14.62
660.397	9.62
661.155	10.62
661.913	12.62
662.671	9.62
663.429	11.62
664.187	10.62
664.945	9.62
665.703	11.62
666.46	9.62
667.218	9.62
667.976	9.62
668.733	9.62
669.49	10.62
670.248	10.62
671.005	10.62
671.762	7.62
672.519	10.62
673.276	8.62
674.033	7.62
674.79	8.62
675.547	9.62
676.304	8.62
677.06	6.62
677.817	8.62
678.574	7.62
679.33	8.62
680.086	9.62
680.843	8.62
681.599	10.62
682.355	9.62
683.111	5.62
683.867	11.62
684.623	7.62
685.379	9.62
686.135	7.62
686.89	8.62
687.646	9.62
688.402	7.62
689.157	8.62
689.912	8.62
690.668	9.62
691.423	9.62
692.178	8.62
692.933	7.62
693.688	6.62
694.443	8.62
695.198	8.62
695.953	9.62
696.708	12.62
697.462	6.62
698.217	7.62
698.972	10.62
699.726	8.62
700.48	7.62
701.235	8.62
701.989	8.62
702.743	6.62
703.497	9.62
704.251	9.62
705.005	8.62
705.759	7.62
706.513	9.62
707.266	7.62
708.02	8.62
708.774	9.62
709.527	8.62
710.28	6.62
711.034	8.62
711.787	5.62
712.54	6.62
713.293	5.62
714.046	6.62
714.799	6.62
715.552	8.62
716.305	7.62
717.058	9.62
717.81	7.62
718.563	8.62
719.315	9.62
720.068	8.62
720.82	8.62
721.573	9.62
722.325	9.62
723.077	8.62
723.829	8.62
724.581	7.62
725.333	9.62
726.085	7.62
726.836	8.62
727.588	6.62
728.34	9.62
729.091	7.62
729.843	7.62
730.594	8.62
731.346	8.62
732.097	10.62
732.848	10.62
733.599	9.62
734.35	11.62
735.101	8.62
735.852	10.62
736.603	6.62
737.354	9.62
738.104	9.62
738.855	10.62
739.605	8.62
740.356	11.62
741.106	10.62
741.856	9.62
742.607	9.62
743.357	11.62
744.107	10.62
744.857	9.62
745.607	10.62
746.357	10.62
747.106	7.62
747.856	11.62
748.606	8.62
749.355	10.62
750.105	13.62
750.854	9.62
751.603	12.62
752.353	9.62
753.102	11.62
753.851	13.62
754.6	11.62
755.349	10.62
756.098	13.62
756.847	13.62
757.595	12.62
758.344	10.62
759.093	12.62
759.841	11.62
760.589	14.62
761.338	13.62
762.086	14.62
762.834	12.62
763.582	13.62
764.331	13.62
765.079	15.62
765.826	15.62
766.574	14.62
767.322	11.62
768.07	13.62
768.817	14.62
769.565	14.62
770.312	15.62
771.06	12.62
771.807	13.62
772.554	14.62
773.302	16.62
774.049	17.62
774.796	14.62
775.543	14.62
776.29	16.62
777.036	15.62
777.783	11.62
778.53	18.62
779.276	15.62
780.023	15.62
780.769	17.62
781.516	15.62
782.262	14.62
783.008	15.62
783.754	17.62
784.5	14.62
785.246	14.62
785.992	15.62
786.738	15.62
787.484	16.62
788.23	15.62
788.975	15.62
789.721	14.62
790.466	19.62
791.212	17.62
791.957	14.62
792.702	17.62
793.447	11.62
794.193	15.62
794.938	13.62
795.683	13.62
796.427	14.62
797.172	11.62
797.917	13.62
798.662	15.62
799.406	13.62
800.151	14.62
800.895	11.62
801.64	12.62
802.384	14.62
803.128	14.62
803.872	13.62
804.616	10.62
805.36	11.62
806.104	9.62
806.848	13.62
807.592	12.62
808.336	9.62
809.079	10.62
809.823	12.62
810.566	10.62
811.31	7.62
812.053	10.62
812.796	9.62
813.539	9.62
814.283	10.62
815.026	8.62
815.769	11.62
816.511	7.62
817.254	8.62
817.997	11.62
818.74	8.62
819.482	7.62
820.225	7.62
820.967	10.62
821.71	7.62
822.452	8.62
823.194	6.62
823.936	7.62
824.678	9.62
825.42	7.62
826.162	8.62
826.904	6.62
827.646	7.62
828.388	7.62
829.129	6.62
829.871	6.62
830.612	6.62
831.354	8.62
832.095	8.62
832.836	4.62
833.577	7.62
834.319	8.62
835.06	6.62
835.801	5.62
836.542	7.62
837.282	5.62
838.023	4.62
838.764	7.62
839.504	6.62
840.245	7.62
840.985	5.62
841.726	5.62
842.466	7.62
843.206	6.62
843.946	5.62
844.687	4.62
845.427	4.62
846.166	7.62
846.906	4.62
847.646	4.62
848.386	4.62
849.125	4.62
849.865	5.62
850.605	7.62
851.344	6.62
852.083	5.62
852.823	6.62
853.562	6.62
854.301	3.62
855.04	5.62
855.779	4.62
856.518	5.62
857.257	6.62
857.995	4.62
858.734	4.62
859.473	2.62
860.211	5.62
860.95	4.62
861.688	4.62
862.426	5.62
863.165	3.62
863.903	3.62
864.641	5.62
865.379	5.62
866.117	4.62
866.855	4.62
867.593	1.62
868.33	3.62
869.068	3.62
869.806	2.62
870.543	3.62
871.28	4.62
872.018	2.62
872.755	2.62
873.492	5.62
874.229	2.62
874.967	2.62
875.703	1.62
876.44	2.62
877.177	3.62
877.914	4.62
878.651	0.62
879.387	2.62
880.124	2.62
880.86	2.62
881.597	2.62
882.333	1.62
883.069	1.62
883.806	0.62
884.542	2.62
885.278	2.62
886.014	4.62
886.749	1.62
887.485	1.62
888.221	3.62
888.957	1.62
889.692	3.62
890.428	-0.38
891.163	1.62
891.899	0.62
892.634	1.62
893.369	3.62
894.104	1.62
894.839	5.62
895.574	0.62
896.309	1.62
897.044	2.62
897.779	-0.38
898.514	2.62
899.248	1.62
899.983	2.62
900.717	1.62
901.452	1.62
902.186	2.62
902.92	3.62
903.654	1.62
904.389	2.62
905.123	2.62
905.857	2.62
906.59	2.62
907.324	2.62
908.058	0.62
908.792	1.62
909.525	-0.38
910.259	0.62
910.992	3.62
911.726	2.62
912.459	1.62
913.192	2.62
913.925	1.62
914.658	0.62
915.391	0.62
916.124	1.62
916.857	1.62
917.59	1.62
918.323	2.62
919.055	0.62
919.788	3.62
920.521	1.62
921.253	-1.38
921.985	-0.38
922.718	-0.38
923.45	0.62
924.182	1.62
924.914	1.62
925.646	0.62
926.378	2.62
927.11	2.62
927.841	0.62
928.573	1.62
929.305	1.62
930.036	2.62
930.768	1.62
931.499	1.62
932.23	-0.38
932.962	-0.38
933.693	2.62
934.424	1.62
935.155	1.62
935.886	2.62
936.617	2.62
937.348	1.62
938.078	-1.38
938.809	1.62
939.54	1.62
940.27	0.62
941.001	0.62
941.731	1.62
942.461	2.62
943.191	0.62
943.922	-0.38
944.652	1.62
945.382	-0.38
946.112	1.62
946.841	-1.38
947.571	2.62
948.301	-1.38
949.031	1.62
949.76	-0.38
950.49	-0.38
951.219	3.62
951.948	2.62
952.678	-0.38
953.407	1.62
954.136	-0.38
954.865	2.62
955.594	1.62
956.323	1.62
957.052	-0.38
957.78	0.62
958.509	-0.38
959.238	-0.38
959.966	3.62
960.695	-0.38
961.423	0.62
962.151	1.62
962.88	0.62
963.608	-0.38
964.336	2.62
965.064	1.62
965.792	-0.38
966.52	-0.38
967.247	0.62
967.975	-0.38
968.703	2.62
969.43	-0.38
970.158	3.62
970.885	0.62
971.613	0.62
972.34	2.62
973.067	2.62
973.794	1.62
974.521	0.62
975.248	1.62
975.975	1.62
976.702	1.62
977.429	2.62
978.156	-0.38
978.882	1.62
979.609	1.62
980.335	2.62
981.062	-0.38
981.788	3.62
982.514	-0.38
983.24	1.62
983.967	1.62
984.693	0.62
985.419	-0.38
986.144	3.62
986.87	0.62
987.596	1.62
988.322	0.62
989.047	3.62
989.773	-1.38
990.498	1.62
991.224	-0.38
991.949	1.62
992.674	-0.38
993.399	-2.38
994.124	2.62
994.849	1.62
995.574	0.62
996.299	-0.38
997.024	-0.38
997.749	3.62
998.473	3.62
999.198	1.62
999.922	-1.38
1000.647	2.62
1001.371	3.62
1002.095	-1.38
1002.82	-3.38
1003.544	-0.38
1004.268	5.62
1004.992	4.62
1005.716	4.62
1006.439	6.62
1007.163	4.62
1007.887	5.62
1008.611	1.62
1009.334	0.62
1010.058	1.62
1010.781	2.62
1011.504	1.62
1012.228	0.62
1012.951	-0.38
1013.674	0.62
1014.397	0.62
1015.12	0.62
