节点500_705_QEPB04081__491__20-52-52-761.txt的数据

Date: Wed Nov 12 20:52:52 CST 2025
User: PC
Spectrometer: QEPB0408
触发模式: 0
积分时间 (秒): 1.000000E-2
Scans to average: 1
启用暗噪声校正: true
启用非线性校正: false
滑动平均宽度: 0
X轴模式: Wavelengths
Number of Pixels in Spectrum: 1044
>>>>>Begin Spectral Data<<<<<
220.843	5.75
221.644	5.75
222.444	3.75
223.244	4.75
224.045	7.75
224.845	6.75
225.645	5.75
226.445	6.75
227.245	3.75
228.045	6.75
228.845	7.75
229.645	7.75
230.444	8.75
231.244	9.75
232.043	4.75
232.843	9.75
233.642	7.75
234.442	9.75
235.241	7.75
236.04	10.75
236.839	8.75
237.638	11.75
238.437	9.75
239.236	10.75
240.035	11.75
240.833	11.75
241.632	10.75
242.43	8.75
243.229	10.75
244.027	12.75
244.826	11.75
245.624	12.75
246.422	12.75
247.22	12.75
248.018	14.75
248.816	10.75
249.614	14.75
250.412	14.75
251.21	13.75
252.007	14.75
252.805	14.75
253.602	16.75
254.4	13.75
255.197	19.75
255.994	16.75
256.791	17.75
257.589	21.75
258.386	15.75
259.183	20.75
259.979	22.75
260.776	20.75
261.573	24.75
262.37	18.75
263.166	20.75
263.963	25.75
264.759	22.75
265.556	23.75
266.352	24.75
267.148	26.75
267.944	24.75
268.74	27.75
269.536	26.75
270.332	31.75
271.128	28.75
271.924	29.75
272.719	29.75
273.515	29.75
274.311	32.75
275.106	27.75
275.901	31.75
276.697	28.75
277.492	32.75
278.287	28.75
279.082	30.75
279.877	34.75
280.672	32.75
281.467	28.75
282.262	32.75
283.056	33.75
283.851	33.75
284.646	32.75
285.44	34.75
286.234	34.75
287.029	34.75
287.823	30.75
288.617	29.75
289.411	28.75
290.205	26.75
290.999	30.75
291.793	33.75
292.587	32.75
293.381	27.75
294.174	30.75
294.968	29.75
295.761	26.75
296.555	27.75
297.348	24.75
298.141	24.75
298.935	27.75
299.728	26.75
300.521	21.75
301.314	24.75
302.107	25.75
302.899	21.75
303.692	21.75
304.485	20.75
305.277	23.75
306.07	22.75
306.862	23.75
307.655	22.75
308.447	23.75
309.239	21.75
310.031	19.75
310.823	19.75
311.615	19.75
312.407	17.75
313.199	15.75
313.991	16.75
314.783	17.75
315.574	16.75
316.366	15.75
317.157	14.75
317.949	15.75
318.74	13.75
319.531	14.75
320.322	10.75
321.113	11.75
321.904	13.75
322.695	12.75
323.486	14.75
324.277	12.75
325.068	13.75
325.858	10.75
326.649	10.75
327.439	14.75
328.23	10.75
329.02	13.75
329.81	11.75
330.6	12.75
331.391	10.75
332.181	9.75
332.971	12.75
333.76	13.75
334.55	13.75
335.34	13.75
336.13	11.75
336.919	10.75
337.709	9.75
338.498	10.75
339.287	12.75
340.077	11.75
340.866	11.75
341.655	10.75
342.444	9.75
343.233	12.75
344.022	10.75
344.811	11.75
345.6	11.75
346.388	11.75
347.177	10.75
347.965	12.75
348.754	13.75
349.542	11.75
350.33	11.75
351.119	10.75
351.907	10.75
352.695	9.75
353.483	9.75
354.271	12.75
355.059	8.75
355.846	9.75
356.634	9.75
357.422	9.75
358.209	8.75
358.997	12.75
359.784	8.75
360.571	9.75
361.359	8.75
362.146	7.75
362.933	8.75
363.72	9.75
364.507	11.75
365.294	11.75
366.081	7.75
366.867	8.75
367.654	9.75
368.44	8.75
369.227	7.75
370.013	10.75
370.8	6.75
371.586	7.75
372.372	9.75
373.158	5.75
373.944	9.75
374.73	10.75
375.516	10.75
376.302	7.75
377.088	10.75
377.873	6.75
378.659	7.75
379.445	8.75
380.23	10.75
381.015	11.75
381.801	9.75
382.586	9.75
383.371	11.75
384.156	9.75
384.941	8.75
385.726	10.75
386.511	13.75
387.296	11.75
388.08	10.75
388.865	10.75
389.649	11.75
390.434	10.75
391.218	10.75
392.003	10.75
392.787	12.75
393.571	9.75
394.355	12.75
395.139	9.75
395.923	11.75
396.707	10.75
397.491	14.75
398.274	12.75
399.058	14.75
399.842	11.75
400.625	13.75
401.408	12.75
402.192	11.75
402.975	13.75
403.758	15.75
404.541	12.75
405.324	12.75
406.107	15.75
406.89	14.75
407.673	12.75
408.456	16.75
409.238	14.75
410.021	15.75
410.803	12.75
411.586	16.75
412.368	16.75
413.151	19.75
413.933	18.75
414.715	17.75
415.497	19.75
416.279	18.75
417.061	17.75
417.843	17.75
418.624	16.75
419.406	17.75
420.188	18.75
420.969	22.75
421.751	22.75
422.532	22.75
423.313	26.75
424.095	23.75
424.876	24.75
425.657	22.75
426.438	24.75
427.219	24.75
428	25.75
428.78	25.75
429.561	29.75
430.342	30.75
431.122	32.75
431.903	30.75
432.683	32.75
433.464	32.75
434.244	36.75
435.024	41.75
435.804	38.75
436.584	40.75
437.364	45.75
438.144	48.75
438.924	48.75
439.704	53.75
440.483	56.75
441.263	60.75
442.042	66.75
442.822	70.75
443.601	80.75
444.38	81.75
445.16	90.75
445.939	97.75
446.718	103.75
447.497	116.75
448.276	127.75
449.054	135.75
449.833	148.75
450.612	166.75
451.391	185.75
452.169	196.75
452.948	226.75
453.726	255.75
454.504	279.75
455.282	307.75
456.061	340.75
456.839	383.75
457.617	425.75
458.395	471.75
459.172	530.75
459.95	594.75
460.728	658.75
461.506	719.75
462.283	811.75
463.061	905.75
463.838	1010.75
464.615	1110.75
465.393	1227.75
466.17	1369.75
466.947	1516.75
467.724	1686.75
468.501	1847.75
469.278	2057.75
470.055	2244.75
470.831	2492.75
471.608	2744.75
472.385	3011.75
473.161	3297.75
473.938	3643.75
474.714	3971.75
475.49	4362.75
476.266	4771.75
477.043	5192.75
477.819	5664.75
478.595	6154.75
479.371	6725.75
480.146	7297.75
480.922	7964.75
481.698	8654.75
482.473	9347.75
483.249	10171.75
484.024	10975.75
484.8	11893.75
485.575	12794.75
486.35	13932.75
487.126	15047.75
487.901	16158.75
488.676	17415.75
489.451	18708.75
490.225	20190.75
491	21526.75
491.775	22995.75
492.55	24616.75
493.324	26130.75
494.099	27868.75
494.873	29441.75
495.647	31103.75
496.422	32795.75
497.196	34522.75
497.97	36016.75
498.744	37512.75
499.518	39008.75
500.292	40358.75
501.066	41446.75
501.839	42427.75
502.613	43419.75
503.387	44025.75
504.16	44634.75
504.934	44912.75
505.707	45091.75
506.48	44839.75
507.253	44585.75
508.027	44051.75
508.8	43401.75
509.573	42506.75
510.346	41666.75
511.118	40854.75
511.891	39757.75
512.664	38376.75
513.437	37059.75
514.209	35784.75
514.982	34479.75
515.754	33129.75
516.526	31875.75
517.298	30604.75
518.071	29528.75
518.843	28275.75
519.615	27064.75
520.387	26064.75
521.159	25042.75
521.93	24009.75
522.702	23048.75
523.474	22131.75
524.245	21186.75
525.017	20277.75
525.788	19439.75
526.56	18654.75
527.331	17822.75
528.102	16972.75
528.873	16135.75
529.644	15386.75
530.415	14676.75
531.186	13993.75
531.957	13356.75
532.728	12655.75
533.498	11954.75
534.269	11372.75
535.039	10774.75
535.81	10208.75
536.58	9648.75
537.351	9145.75
538.121	8642.75
538.891	8142.75
539.661	7790.75
540.431	7308.75
541.201	6954.75
541.971	6610.75
542.741	6229.75
543.51	5933.75
544.28	5637.75
545.05	5385.75
545.819	5113.75
546.588	4882.75
547.358	4637.75
548.127	4407.75
548.896	4199.75
549.665	3978.75
550.434	3762.75
551.203	3588.75
551.972	3414.75
552.741	3235.75
553.51	3035.75
554.278	2863.75
555.047	2707.75
555.815	2585.75
556.584	2424.75
557.352	2318.75
558.121	2163.75
558.889	2065.75
559.657	1953.75
560.425	1842.75
561.193	1756.75
561.961	1677.75
562.729	1564.75
563.496	1475.75
564.264	1386.75
565.032	1325.75
565.799	1245.75
566.567	1174.75
567.334	1114.75
568.101	1057.75
568.869	991.75
569.636	932.75
570.403	893.75
571.17	841.75
571.937	789.75
572.704	750.75
573.471	704.75
574.237	655.75
575.004	631.75
575.771	585.75
576.537	556.75
577.303	532.75
578.07	500.75
578.836	470.75
579.602	436.75
580.368	415.75
581.134	415.75
581.9	378.75
582.666	363.75
583.432	352.75
584.198	327.75
584.964	312.75
585.729	293.75
586.495	283.75
587.26	263.75
588.025	250.75
588.791	231.75
589.556	219.75
590.321	211.75
591.086	206.75
591.851	193.75
592.616	178.75
593.381	172.75
594.146	165.75
594.911	156.75
595.675	157.75
596.44	146.75
597.204	142.75
597.969	132.75
598.733	130.75
599.497	122.75
600.261	117.75
601.025	109.75
601.79	103.75
602.553	99.75
603.317	100.75
604.081	90.75
604.845	87.75
605.609	85.75
606.372	86.75
607.136	80.75
607.899	74.75
608.662	73.75
609.426	72.75
610.189	66.75
610.952	63.75
611.715	61.75
612.478	60.75
613.241	58.75
614.004	57.75
614.767	52.75
615.529	51.75
616.292	55.75
617.055	51.75
617.817	46.75
618.579	48.75
619.342	45.75
620.104	36.75
620.866	42.75
621.628	39.75
622.39	39.75
623.152	40.75
623.914	36.75
624.676	34.75
625.438	34.75
626.199	33.75
626.961	30.75
627.722	29.75
628.484	30.75
629.245	26.75
630.006	26.75
630.768	26.75
631.529	23.75
632.29	24.75
633.051	26.75
633.812	24.75
634.573	24.75
635.333	22.75
636.094	23.75
636.855	21.75
637.615	21.75
638.376	19.75
639.136	19.75
639.896	18.75
640.657	20.75
641.417	19.75
642.177	16.75
642.937	20.75
643.697	17.75
644.457	16.75
645.216	15.75
645.976	14.75
646.736	16.75
647.495	13.75
648.255	15.75
649.014	14.75
649.774	14.75
650.533	13.75
651.292	16.75
652.051	13.75
652.81	12.75
653.569	12.75
654.328	12.75
655.087	14.75
655.846	10.75
656.604	13.75
657.363	12.75
658.121	12.75
658.88	12.75
659.638	10.75
660.397	11.75
661.155	7.75
661.913	9.75
662.671	9.75
663.429	10.75
664.187	10.75
664.945	10.75
665.703	8.75
666.46	7.75
667.218	7.75
667.976	9.75
668.733	8.75
669.49	9.75
670.248	9.75
671.005	8.75
671.762	11.75
672.519	6.75
673.276	10.75
674.033	8.75
674.79	8.75
675.547	9.75
676.304	6.75
677.06	10.75
677.817	8.75
678.574	8.75
679.33	9.75
680.086	7.75
680.843	7.75
681.599	8.75
682.355	9.75
683.111	6.75
683.867	8.75
684.623	7.75
685.379	8.75
686.135	8.75
686.89	7.75
687.646	7.75
688.402	7.75
689.157	8.75
689.912	7.75
690.668	10.75
691.423	9.75
692.178	7.75
692.933	7.75
693.688	8.75
694.443	7.75
695.198	8.75
695.953	6.75
696.708	7.75
697.462	5.75
698.217	6.75
698.972	6.75
699.726	9.75
700.48	4.75
701.235	6.75
701.989	7.75
702.743	6.75
703.497	7.75
704.251	8.75
705.005	7.75
705.759	6.75
706.513	6.75
707.266	5.75
708.02	5.75
708.774	7.75
709.527	6.75
710.28	7.75
711.034	7.75
711.787	4.75
712.54	5.75
713.293	9.75
714.046	5.75
714.799	7.75
715.552	7.75
716.305	7.75
717.058	6.75
717.81	9.75
718.563	9.75
719.315	6.75
720.068	7.75
720.82	7.75
721.573	6.75
722.325	6.75
723.077	6.75
723.829	6.75
724.581	6.75
725.333	8.75
726.085	7.75
726.836	7.75
727.588	10.75
728.34	7.75
729.091	9.75
729.843	5.75
730.594	7.75
731.346	8.75
732.097	5.75
732.848	9.75
733.599	7.75
734.35	9.75
735.101	8.75
735.852	7.75
736.603	6.75
737.354	8.75
738.104	8.75
738.855	8.75
739.605	9.75
740.356	9.75
741.106	6.75
741.856	10.75
742.607	9.75
743.357	10.75
744.107	8.75
744.857	9.75
745.607	8.75
746.357	8.75
747.106	11.75
747.856	10.75
748.606	9.75
749.355	8.75
750.105	9.75
750.854	11.75
751.603	10.75
752.353	10.75
753.102	10.75
753.851	10.75
754.6	10.75
755.349	7.75
756.098	10.75
756.847	12.75
757.595	12.75
758.344	10.75
759.093	10.75
759.841	10.75
760.589	13.75
761.338	10.75
762.086	10.75
762.834	10.75
763.582	13.75
764.331	12.75
765.079	10.75
765.826	10.75
766.574	10.75
767.322	14.75
768.07	12.75
768.817	13.75
769.565	13.75
770.312	14.75
771.06	9.75
771.807	14.75
772.554	14.75
773.302	13.75
774.049	12.75
774.796	13.75
775.543	13.75
776.29	13.75
777.036	12.75
777.783	16.75
778.53	12.75
779.276	15.75
780.023	12.75
780.769	13.75
781.516	16.75
782.262	14.75
783.008	15.75
783.754	13.75
784.5	13.75
785.246	14.75
785.992	13.75
786.738	16.75
787.484	15.75
788.23	17.75
788.975	12.75
789.721	17.75
790.466	14.75
791.212	13.75
791.957	13.75
792.702	12.75
793.447	17.75
794.193	13.75
794.938	12.75
795.683	14.75
796.427	11.75
797.172	16.75
797.917	11.75
798.662	14.75
799.406	10.75
800.151	12.75
800.895	10.75
801.64	13.75
802.384	9.75
803.128	13.75
803.872	11.75
804.616	12.75
805.36	10.75
806.104	10.75
806.848	10.75
807.592	9.75
808.336	8.75
809.079	10.75
809.823	7.75
810.566	9.75
811.31	8.75
812.053	6.75
812.796	9.75
813.539	10.75
814.283	7.75
815.026	8.75
815.769	8.75
816.511	9.75
817.254	6.75
817.997	9.75
818.74	8.75
819.482	8.75
820.225	6.75
820.967	6.75
821.71	8.75
822.452	7.75
823.194	7.75
823.936	7.75
824.678	6.75
825.42	6.75
826.162	5.75
826.904	6.75
827.646	5.75
828.388	5.75
829.129	3.75
829.871	7.75
830.612	5.75
831.354	5.75
832.095	6.75
832.836	7.75
833.577	4.75
834.319	7.75
835.06	5.75
835.801	7.75
836.542	7.75
837.282	5.75
838.023	7.75
838.764	5.75
839.504	6.75
840.245	4.75
840.985	5.75
841.726	3.75
842.466	3.75
843.206	7.75
843.946	4.75
844.687	3.75
845.427	4.75
846.166	4.75
846.906	2.75
847.646	2.75
848.386	6.75
849.125	4.75
849.865	4.75
850.605	2.75
851.344	2.75
852.083	6.75
852.823	4.75
853.562	3.75
854.301	2.75
855.04	4.75
855.779	5.75
856.518	5.75
857.257	2.75
857.995	3.75
858.734	3.75
859.473	2.75
860.211	6.75
860.95	3.75
861.688	4.75
862.426	2.75
863.165	1.75
863.903	3.75
864.641	0.75
865.379	3.75
866.117	3.75
866.855	1.75
867.593	4.75
868.33	2.75
869.068	1.75
869.806	1.75
870.543	0.75
871.28	2.75
872.018	1.75
872.755	2.75
873.492	3.75
874.229	1.75
874.967	1.75
875.703	1.75
876.44	2.75
877.177	2.75
877.914	0.75
878.651	3.75
879.387	1.75
880.124	0.75
880.86	0.75
881.597	3.75
882.333	1.75
883.069	1.75
883.806	2.75
884.542	-1.25
885.278	2.75
886.014	1.75
886.749	-0.25
887.485	1.75
888.221	0.75
888.957	0.75
889.692	-0.25
890.428	0.75
891.163	0.75
891.899	0.75
892.634	-1.25
893.369	0.75
894.104	2.75
894.839	0.75
895.574	2.75
896.309	0.75
897.044	2.75
897.779	-1.25
898.514	-0.25
899.248	1.75
899.983	0.75
900.717	0.75
901.452	0.75
902.186	0.75
902.92	2.75
903.654	0.75
904.389	1.75
905.123	0.75
905.857	0.75
906.59	0.75
907.324	-0.25
908.058	2.75
908.792	1.75
909.525	2.75
910.259	0.75
910.992	-2.25
911.726	0.75
912.459	-0.25
913.192	-0.25
913.925	2.75
914.658	-1.25
915.391	-1.25
916.124	1.75
916.857	0.75
917.59	0.75
918.323	2.75
919.055	1.75
919.788	1.75
920.521	0.75
921.253	-0.25
921.985	1.75
922.718	-0.25
923.45	-0.25
924.182	2.75
924.914	0.75
925.646	-1.25
926.378	0.75
927.11	3.75
927.841	-1.25
928.573	1.75
929.305	2.75
930.036	-2.25
930.768	0.75
931.499	-0.25
932.23	-2.25
932.962	2.75
933.693	-0.25
934.424	-0.25
935.155	0.75
935.886	-0.25
936.617	0.75
937.348	-2.25
938.078	-0.25
938.809	-0.25
939.54	0.75
940.27	0.75
941.001	1.75
941.731	2.75
942.461	-2.25
943.191	-0.25
943.922	0.75
944.652	0.75
945.382	2.75
946.112	1.75
946.841	0.75
947.571	0.75
948.301	0.75
949.031	0.75
949.76	-0.25
950.49	1.75
951.219	1.75
951.948	1.75
952.678	-0.25
953.407	0.75
954.136	0.75
954.865	-0.25
955.594	1.75
956.323	-2.25
957.052	0.75
957.78	-1.25
958.509	1.75
959.238	-0.25
959.966	-1.25
960.695	-0.25
961.423	-1.25
962.151	-0.25
962.88	-1.25
963.608	-0.25
964.336	-0.25
965.064	-0.25
965.792	0.75
966.52	-0.25
967.247	0.75
967.975	-1.25
968.703	-1.25
969.43	0.75
970.158	-0.25
970.885	-0.25
971.613	-0.25
972.34	-0.25
973.067	0.75
973.794	-0.25
974.521	0.75
975.248	-1.25
975.975	0.75
976.702	0.75
977.429	2.75
978.156	0.75
978.882	-1.25
979.609	0.75
980.335	1.75
981.062	2.75
981.788	-1.25
982.514	0.75
983.24	0.75
983.967	-1.25
984.693	-1.25
985.419	0.75
986.144	0.75
986.87	-0.25
987.596	-0.25
988.322	0.75
989.047	-1.25
989.773	-1.25
990.498	-1.25
991.224	2.75
991.949	0.75
992.674	0.75
993.399	-0.25
994.124	-1.25
994.849	-1.25
995.574	0.75
996.299	0.75
997.024	-0.25
997.749	-2.25
998.473	0.75
999.198	-1.25
999.922	1.75
1000.647	0.75
1001.371	3.75
1002.095	-1.25
1002.82	-1.25
1003.544	-1.25
1004.268	5.75
1004.992	3.75
1005.716	2.75
1006.439	4.75
1007.163	7.75
1007.887	5.75
1008.611	-0.25
1009.334	-0.25
1010.058	-2.25
1010.781	-1.25
1011.504	-1.25
1012.228	-0.25
1012.951	-0.25
1013.674	-0.25
1014.397	0.75
1015.12	-0.25
