节点500_705_QEPB04081__523__20-53-19-747.txt的数据

Date: Wed Nov 12 20:53:19 CST 2025
User: PC
Spectrometer: QEPB0408
触发模式: 0
积分时间 (秒): 1.000000E-2
Scans to average: 1
启用暗噪声校正: true
启用非线性校正: false
滑动平均宽度: 0
X轴模式: Wavelengths
Number of Pixels in Spectrum: 1044
>>>>>Begin Spectral Data<<<<<
220.843	4.12
221.644	4.12
222.444	3.12
223.244	3.12
224.045	6.12
224.845	7.12
225.645	6.12
226.445	5.12
227.245	7.12
228.045	5.12
228.845	9.12
229.645	6.12
230.444	7.12
231.244	7.12
232.043	8.12
232.843	7.12
233.642	9.12
234.442	9.12
235.241	9.12
236.04	9.12
236.839	9.12
237.638	13.12
238.437	8.12
239.236	10.12
240.035	10.12
240.833	10.12
241.632	10.12
242.43	11.12
243.229	12.12
244.027	14.12
244.826	11.12
245.624	10.12
246.422	12.12
247.22	12.12
248.018	13.12
248.816	15.12
249.614	15.12
250.412	14.12
251.21	15.12
252.007	14.12
252.805	16.12
253.602	18.12
254.4	16.12
255.197	19.12
255.994	17.12
256.791	18.12
257.589	18.12
258.386	17.12
259.183	20.12
259.979	20.12
260.776	22.12
261.573	21.12
262.37	26.12
263.166	23.12
263.963	23.12
264.759	24.12
265.556	25.12
266.352	26.12
267.148	25.12
267.944	29.12
268.74	27.12
269.536	27.12
270.332	26.12
271.128	27.12
271.924	30.12
272.719	27.12
273.515	31.12
274.311	30.12
275.106	31.12
275.901	31.12
276.697	31.12
277.492	33.12
278.287	33.12
279.082	30.12
279.877	34.12
280.672	32.12
281.467	31.12
282.262	30.12
283.056	31.12
283.851	31.12
284.646	35.12
285.44	32.12
286.234	30.12
287.029	30.12
287.823	33.12
288.617	32.12
289.411	33.12
290.205	32.12
290.999	34.12
291.793	33.12
292.587	31.12
293.381	29.12
294.174	28.12
294.968	28.12
295.761	28.12
296.555	27.12
297.348	28.12
298.141	22.12
298.935	28.12
299.728	27.12
300.521	24.12
301.314	25.12
302.107	23.12
302.899	23.12
303.692	22.12
304.485	24.12
305.277	23.12
306.07	20.12
306.862	23.12
307.655	20.12
308.447	23.12
309.239	19.12
310.031	19.12
310.823	19.12
311.615	17.12
312.407	16.12
313.199	19.12
313.991	18.12
314.783	16.12
315.574	15.12
316.366	19.12
317.157	15.12
317.949	17.12
318.74	15.12
319.531	16.12
320.322	16.12
321.113	15.12
321.904	14.12
322.695	11.12
323.486	14.12
324.277	12.12
325.068	15.12
325.858	13.12
326.649	13.12
327.439	15.12
328.23	11.12
329.02	11.12
329.81	11.12
330.6	11.12
331.391	13.12
332.181	11.12
332.971	14.12
333.76	14.12
334.55	13.12
335.34	13.12
336.13	11.12
336.919	11.12
337.709	10.12
338.498	9.12
339.287	14.12
340.077	11.12
340.866	11.12
341.655	11.12
342.444	12.12
343.233	13.12
344.022	11.12
344.811	15.12
345.6	10.12
346.388	10.12
347.177	12.12
347.965	10.12
348.754	11.12
349.542	11.12
350.33	10.12
351.119	11.12
351.907	11.12
352.695	11.12
353.483	11.12
354.271	11.12
355.059	10.12
355.846	11.12
356.634	8.12
357.422	8.12
358.209	10.12
358.997	9.12
359.784	12.12
360.571	10.12
361.359	8.12
362.146	10.12
362.933	11.12
363.72	11.12
364.507	11.12
365.294	9.12
366.081	9.12
366.867	11.12
367.654	8.12
368.44	8.12
369.227	12.12
370.013	9.12
370.8	10.12
371.586	8.12
372.372	9.12
373.158	9.12
373.944	9.12
374.73	9.12
375.516	9.12
376.302	11.12
377.088	11.12
377.873	10.12
378.659	9.12
379.445	11.12
380.23	8.12
381.015	9.12
381.801	11.12
382.586	8.12
383.371	11.12
384.156	11.12
384.941	11.12
385.726	12.12
386.511	10.12
387.296	9.12
388.08	9.12
388.865	10.12
389.649	9.12
390.434	13.12
391.218	13.12
392.003	13.12
392.787	9.12
393.571	13.12
394.355	12.12
395.139	15.12
395.923	8.12
396.707	12.12
397.491	13.12
398.274	13.12
399.058	13.12
399.842	12.12
400.625	15.12
401.408	12.12
402.192	12.12
402.975	14.12
403.758	12.12
404.541	13.12
405.324	15.12
406.107	12.12
406.89	14.12
407.673	15.12
408.456	20.12
409.238	14.12
410.021	17.12
410.803	17.12
411.586	18.12
412.368	17.12
413.151	14.12
413.933	18.12
414.715	18.12
415.497	18.12
416.279	18.12
417.061	20.12
417.843	19.12
418.624	19.12
419.406	20.12
420.188	20.12
420.969	21.12
421.751	20.12
422.532	23.12
423.313	24.12
424.095	21.12
424.876	23.12
425.657	21.12
426.438	21.12
427.219	25.12
428	27.12
428.78	30.12
429.561	27.12
430.342	29.12
431.122	31.12
431.903	28.12
432.683	35.12
433.464	31.12
434.244	35.12
435.024	40.12
435.804	42.12
436.584	41.12
437.364	51.12
438.144	49.12
438.924	48.12
439.704	55.12
440.483	58.12
441.263	63.12
442.042	66.12
442.822	72.12
443.601	74.12
444.38	83.12
445.16	90.12
445.939	101.12
446.718	109.12
447.497	116.12
448.276	130.12
449.054	142.12
449.833	154.12
450.612	168.12
451.391	185.12
452.169	200.12
452.948	229.12
453.726	249.12
454.504	278.12
455.282	316.12
456.061	350.12
456.839	397.12
457.617	427.12
458.395	478.12
459.172	518.12
459.95	597.12
460.728	662.12
461.506	738.12
462.283	825.12
463.061	900.12
463.838	1020.12
464.615	1121.12
465.393	1241.12
466.17	1381.12
466.947	1515.12
467.724	1690.12
468.501	1854.12
469.278	2065.12
470.055	2266.12
470.831	2502.12
471.608	2761.12
472.385	3012.12
473.161	3313.12
473.938	3637.12
474.714	3979.12
475.49	4349.12
476.266	4726.12
477.043	5169.12
477.819	5646.12
478.595	6139.12
479.371	6681.12
480.146	7251.12
480.922	7878.12
481.698	8561.12
482.473	9263.12
483.249	10043.12
484.024	10939.12
484.8	11768.12
485.575	12672.12
486.35	13712.12
487.126	14790.12
487.901	15879.12
488.676	17157.12
489.451	18470.12
490.225	19799.12
491	21184.12
491.775	22664.12
492.55	24224.12
493.324	25774.12
494.099	27312.12
494.873	28928.12
495.647	30549.12
496.422	32265.12
497.196	33960.12
497.97	35469.12
498.744	36894.12
499.518	38566.12
500.292	39936.12
501.066	40978.12
501.839	41888.12
502.613	42846.12
503.387	43600.12
504.16	44155.12
504.934	44389.12
505.707	44610.12
506.48	44518.12
507.253	44195.12
508.027	43868.12
508.8	43207.12
509.573	42401.12
510.346	41569.12
511.118	40674.12
511.891	39676.12
512.664	38275.12
513.437	37053.12
514.209	35807.12
514.982	34524.12
515.754	33157.12
516.526	31858.12
517.298	30646.12
518.071	29460.12
518.843	28363.12
519.615	27156.12
520.387	26160.12
521.159	25085.12
521.93	24066.12
522.702	23120.12
523.474	22149.12
524.245	21244.12
525.017	20322.12
525.788	19476.12
526.56	18705.12
527.331	17924.12
528.102	17012.12
528.873	16221.12
529.644	15452.12
530.415	14708.12
531.186	14039.12
531.957	13360.12
532.728	12703.12
533.498	12020.12
534.269	11454.12
535.039	10831.12
535.81	10288.12
536.58	9705.12
537.351	9193.12
538.121	8717.12
538.891	8259.12
539.661	7793.12
540.431	7399.12
541.201	7017.12
541.971	6651.12
542.741	6247.12
543.51	5968.12
544.28	5679.12
545.05	5401.12
545.819	5148.12
546.588	4936.12
547.358	4674.12
548.127	4441.12
548.896	4223.12
549.665	4016.12
550.434	3838.12
551.203	3610.12
551.972	3456.12
552.741	3247.12
553.51	3068.12
554.278	2887.12
555.047	2717.12
555.815	2608.12
556.584	2456.12
557.352	2322.12
558.121	2207.12
558.889	2066.12
559.657	1968.12
560.425	1850.12
561.193	1770.12
561.961	1672.12
562.729	1577.12
563.496	1483.12
564.264	1429.12
565.032	1329.12
565.799	1262.12
566.567	1191.12
567.334	1132.12
568.101	1058.12
568.869	995.12
569.636	946.12
570.403	904.12
571.17	848.12
571.937	791.12
572.704	756.12
573.471	712.12
574.237	671.12
575.004	640.12
575.771	591.12
576.537	570.12
577.303	531.12
578.07	503.12
578.836	474.12
579.602	447.12
580.368	432.12
581.134	407.12
581.9	380.12
582.666	371.12
583.432	337.12
584.198	327.12
584.964	319.12
585.729	295.12
586.495	278.12
587.26	265.12
588.025	260.12
588.791	239.12
589.556	232.12
590.321	216.12
591.086	203.12
591.851	194.12
592.616	184.12
593.381	174.12
594.146	171.12
594.911	163.12
595.675	153.12
596.44	146.12
597.204	139.12
597.969	136.12
598.733	128.12
599.497	125.12
600.261	114.12
601.025	115.12
601.79	108.12
602.553	103.12
603.317	100.12
604.081	94.12
604.845	92.12
605.609	85.12
606.372	86.12
607.136	83.12
607.899	78.12
608.662	75.12
609.426	72.12
610.189	72.12
610.952	66.12
611.715	63.12
612.478	62.12
613.241	57.12
614.004	58.12
614.767	54.12
615.529	53.12
616.292	52.12
617.055	51.12
617.817	47.12
618.579	49.12
619.342	47.12
620.104	40.12
620.866	41.12
621.628	43.12
622.39	42.12
623.152	40.12
623.914	34.12
624.676	35.12
625.438	34.12
626.199	33.12
626.961	29.12
627.722	33.12
628.484	31.12
629.245	31.12
630.006	29.12
630.768	28.12
631.529	31.12
632.29	26.12
633.051	25.12
633.812	26.12
634.573	25.12
635.333	24.12
636.094	22.12
636.855	24.12
637.615	23.12
638.376	21.12
639.136	22.12
639.896	22.12
640.657	21.12
641.417	20.12
642.177	18.12
642.937	17.12
643.697	15.12
644.457	17.12
645.216	16.12
645.976	18.12
646.736	15.12
647.495	13.12
648.255	19.12
649.014	16.12
649.774	15.12
650.533	15.12
651.292	12.12
652.051	17.12
652.81	13.12
653.569	12.12
654.328	13.12
655.087	17.12
655.846	11.12
656.604	13.12
657.363	12.12
658.121	10.12
658.88	13.12
659.638	12.12
660.397	13.12
661.155	10.12
661.913	11.12
662.671	12.12
663.429	12.12
664.187	11.12
664.945	11.12
665.703	8.12
666.46	12.12
667.218	12.12
667.976	11.12
668.733	11.12
669.49	9.12
670.248	9.12
671.005	10.12
671.762	12.12
672.519	9.12
673.276	8.12
674.033	8.12
674.79	8.12
675.547	9.12
676.304	10.12
677.06	11.12
677.817	6.12
678.574	6.12
679.33	11.12
680.086	8.12
680.843	8.12
681.599	11.12
682.355	9.12
683.111	8.12
683.867	9.12
684.623	9.12
685.379	9.12
686.135	9.12
686.89	10.12
687.646	9.12
688.402	11.12
689.157	7.12
689.912	7.12
690.668	8.12
691.423	7.12
692.178	9.12
692.933	8.12
693.688	6.12
694.443	8.12
695.198	9.12
695.953	6.12
696.708	10.12
697.462	6.12
698.217	9.12
698.972	8.12
699.726	6.12
700.48	6.12
701.235	4.12
701.989	7.12
702.743	5.12
703.497	7.12
704.251	8.12
705.005	4.12
705.759	9.12
706.513	6.12
707.266	7.12
708.02	8.12
708.774	7.12
709.527	8.12
710.28	8.12
711.034	7.12
711.787	9.12
712.54	7.12
713.293	8.12
714.046	5.12
714.799	8.12
715.552	6.12
716.305	8.12
717.058	10.12
717.81	6.12
718.563	8.12
719.315	6.12
720.068	7.12
720.82	8.12
721.573	9.12
722.325	7.12
723.077	7.12
723.829	7.12
724.581	7.12
725.333	11.12
726.085	7.12
726.836	10.12
727.588	8.12
728.34	9.12
729.091	9.12
729.843	7.12
730.594	9.12
731.346	8.12
732.097	9.12
732.848	7.12
733.599	9.12
734.35	7.12
735.101	8.12
735.852	9.12
736.603	10.12
737.354	9.12
738.104	8.12
738.855	11.12
739.605	8.12
740.356	10.12
741.106	10.12
741.856	9.12
742.607	8.12
743.357	7.12
744.107	9.12
744.857	9.12
745.607	10.12
746.357	9.12
747.106	11.12
747.856	10.12
748.606	12.12
749.355	9.12
750.105	9.12
750.854	9.12
751.603	9.12
752.353	12.12
753.102	12.12
753.851	13.12
754.6	11.12
755.349	10.12
756.098	10.12
756.847	13.12
757.595	11.12
758.344	11.12
759.093	12.12
759.841	10.12
760.589	10.12
761.338	12.12
762.086	12.12
762.834	14.12
763.582	12.12
764.331	13.12
765.079	14.12
765.826	13.12
766.574	13.12
767.322	11.12
768.07	11.12
768.817	15.12
769.565	14.12
770.312	13.12
771.06	12.12
771.807	15.12
772.554	13.12
773.302	15.12
774.049	14.12
774.796	12.12
775.543	15.12
776.29	16.12
777.036	14.12
777.783	13.12
778.53	12.12
779.276	16.12
780.023	17.12
780.769	18.12
781.516	15.12
782.262	17.12
783.008	17.12
783.754	14.12
784.5	17.12
785.246	16.12
785.992	16.12
786.738	14.12
787.484	14.12
788.23	15.12
788.975	15.12
789.721	11.12
790.466	14.12
791.212	15.12
791.957	17.12
792.702	11.12
793.447	14.12
794.193	14.12
794.938	14.12
795.683	15.12
796.427	14.12
797.172	12.12
797.917	12.12
798.662	12.12
799.406	15.12
800.151	13.12
800.895	10.12
801.64	9.12
802.384	13.12
803.128	10.12
803.872	12.12
804.616	10.12
805.36	11.12
806.104	12.12
806.848	11.12
807.592	11.12
808.336	9.12
809.079	10.12
809.823	11.12
810.566	10.12
811.31	9.12
812.053	9.12
812.796	11.12
813.539	10.12
814.283	10.12
815.026	9.12
815.769	7.12
816.511	9.12
817.254	7.12
817.997	13.12
818.74	9.12
819.482	6.12
820.225	5.12
820.967	9.12
821.71	8.12
822.452	7.12
823.194	7.12
823.936	6.12
824.678	8.12
825.42	6.12
826.162	6.12
826.904	10.12
827.646	6.12
828.388	8.12
829.129	4.12
829.871	5.12
830.612	7.12
831.354	8.12
832.095	8.12
832.836	6.12
833.577	4.12
834.319	5.12
835.06	6.12
835.801	7.12
836.542	7.12
837.282	7.12
838.023	6.12
838.764	6.12
839.504	5.12
840.245	4.12
840.985	5.12
841.726	7.12
842.466	5.12
843.206	5.12
843.946	4.12
844.687	6.12
845.427	4.12
846.166	5.12
846.906	8.12
847.646	2.12
848.386	6.12
849.125	4.12
849.865	6.12
850.605	5.12
851.344	3.12
852.083	5.12
852.823	5.12
853.562	3.12
854.301	4.12
855.04	6.12
855.779	3.12
856.518	3.12
857.257	3.12
857.995	5.12
858.734	2.12
859.473	4.12
860.211	4.12
860.95	4.12
861.688	3.12
862.426	3.12
863.165	4.12
863.903	2.12
864.641	2.12
865.379	4.12
866.117	3.12
866.855	2.12
867.593	3.12
868.33	2.12
869.068	2.12
869.806	3.12
870.543	1.12
871.28	4.12
872.018	2.12
872.755	3.12
873.492	1.12
874.229	3.12
874.967	2.12
875.703	1.12
876.44	5.12
877.177	1.12
877.914	1.12
878.651	1.12
879.387	2.12
880.124	1.12
880.86	2.12
881.597	3.12
882.333	-0.88
883.069	3.12
883.806	3.12
884.542	-0.88
885.278	2.12
886.014	-0.88
886.749	0.12
887.485	3.12
888.221	-0.88
888.957	2.12
889.692	4.12
890.428	2.12
891.163	1.12
891.899	0.12
892.634	1.12
893.369	0.12
894.104	2.12
894.839	2.12
895.574	1.12
896.309	1.12
897.044	2.12
897.779	1.12
898.514	1.12
899.248	1.12
899.983	1.12
900.717	0.12
901.452	2.12
902.186	2.12
902.92	1.12
903.654	0.12
904.389	1.12
905.123	1.12
905.857	0.12
906.59	2.12
907.324	1.12
908.058	2.12
908.792	3.12
909.525	1.12
910.259	1.12
910.992	4.12
911.726	-0.88
912.459	1.12
913.192	0.12
913.925	1.12
914.658	0.12
915.391	2.12
916.124	1.12
916.857	2.12
917.59	-0.88
918.323	0.12
919.055	1.12
919.788	-0.88
920.521	-0.88
921.253	1.12
921.985	3.12
922.718	0.12
923.45	1.12
924.182	0.12
924.914	-0.88
925.646	-0.88
926.378	-0.88
927.11	1.12
927.841	0.12
928.573	0.12
929.305	1.12
930.036	0.12
930.768	2.12
931.499	1.12
932.23	0.12
932.962	2.12
933.693	-0.88
934.424	1.12
935.155	0.12
935.886	0.12
936.617	-0.88
937.348	0.12
938.078	-0.88
938.809	0.12
939.54	2.12
940.27	2.12
941.001	0.12
941.731	5.12
942.461	-1.88
943.191	1.12
943.922	2.12
944.652	0.12
945.382	2.12
946.112	1.12
946.841	0.12
947.571	1.12
948.301	2.12
949.031	0.12
949.76	-0.88
950.49	1.12
951.219	1.12
951.948	0.12
952.678	-0.88
953.407	0.12
954.136	-0.88
954.865	2.12
955.594	-0.88
956.323	0.12
957.052	1.12
957.78	0.12
958.509	2.12
959.238	1.12
959.966	0.12
960.695	2.12
961.423	1.12
962.151	-0.88
962.88	0.12
963.608	0.12
964.336	1.12
965.064	1.12
965.792	2.12
966.52	-2.88
967.247	1.12
967.975	1.12
968.703	-1.88
969.43	0.12
970.158	1.12
970.885	1.12
971.613	0.12
972.34	1.12
973.067	-0.88
973.794	0.12
974.521	-0.88
975.248	-0.88
975.975	2.12
976.702	1.12
977.429	1.12
978.156	1.12
978.882	-0.88
979.609	1.12
980.335	-0.88
981.062	3.12
981.788	0.12
982.514	-0.88
983.24	1.12
983.967	0.12
984.693	2.12
985.419	1.12
986.144	-2.88
986.87	0.12
987.596	0.12
988.322	1.12
989.047	1.12
989.773	2.12
990.498	0.12
991.224	2.12
991.949	1.12
992.674	-0.88
993.399	0.12
994.124	-0.88
994.849	0.12
995.574	0.12
996.299	-0.88
997.024	1.12
997.749	-1.88
998.473	0.12
999.198	-1.88
999.922	1.12
1000.647	-0.88
1001.371	5.12
1002.095	-0.88
1002.82	-1.88
1003.544	0.12
1004.268	5.12
1004.992	6.12
1005.716	5.12
1006.439	3.12
1007.163	5.12
1007.887	7.12
1008.611	0.12
1009.334	1.12
1010.058	0.12
1010.781	2.12
1011.504	0.12
1012.228	-1.88
1012.951	0.12
1013.674	-0.88
1014.397	-1.88
1015.12	0.12
