节点500_705_QEPB04081__185__20-48-53-085.txt的数据

Date: Wed Nov 12 20:48:53 CST 2025
User: PC
Spectrometer: QEPB0408
触发模式: 0
积分时间 (秒): 1.000000E-2
Scans to average: 1
启用暗噪声校正: true
启用非线性校正: false
滑动平均宽度: 0
X轴模式: Wavelengths
Number of Pixels in Spectrum: 1044
>>>>>Begin Spectral Data<<<<<
220.843	5.25
221.644	7.25
222.444	6.25
223.244	7.25
224.045	8.25
224.845	7.25
225.645	6.25
226.445	7.25
227.245	8.25
228.045	9.25
228.845	8.25
229.645	9.25
230.444	7.25
231.244	8.25
232.043	10.25
232.843	6.25
233.642	10.25
234.442	11.25
235.241	11.25
236.04	8.25
236.839	12.25
237.638	11.25
238.437	13.25
239.236	12.25
240.035	11.25
240.833	12.25
241.632	13.25
242.43	13.25
243.229	13.25
244.027	12.25
244.826	12.25
245.624	13.25
246.422	14.25
247.22	16.25
248.018	16.25
248.816	16.25
249.614	17.25
250.412	19.25
251.21	15.25
252.007	16.25
252.805	17.25
253.602	17.25
254.4	19.25
255.197	21.25
255.994	20.25
256.791	24.25
257.589	20.25
258.386	21.25
259.183	22.25
259.979	26.25
260.776	26.25
261.573	24.25
262.37	27.25
263.166	24.25
263.963	28.25
264.759	29.25
265.556	26.25
266.352	28.25
267.148	30.25
267.944	30.25
268.74	33.25
269.536	32.25
270.332	33.25
271.128	33.25
271.924	33.25
272.719	30.25
273.515	32.25
274.311	34.25
275.106	33.25
275.901	33.25
276.697	33.25
277.492	35.25
278.287	34.25
279.082	37.25
279.877	33.25
280.672	35.25
281.467	36.25
282.262	34.25
283.056	34.25
283.851	38.25
284.646	36.25
285.44	36.25
286.234	33.25
287.029	38.25
287.823	33.25
288.617	35.25
289.411	34.25
290.205	31.25
290.999	37.25
291.793	31.25
292.587	34.25
293.381	29.25
294.174	29.25
294.968	28.25
295.761	25.25
296.555	28.25
297.348	26.25
298.141	28.25
298.935	30.25
299.728	27.25
300.521	28.25
301.314	23.25
302.107	23.25
302.899	25.25
303.692	22.25
304.485	22.25
305.277	22.25
306.07	25.25
306.862	25.25
307.655	22.25
308.447	19.25
309.239	22.25
310.031	23.25
310.823	20.25
311.615	17.25
312.407	15.25
313.199	16.25
313.991	20.25
314.783	13.25
315.574	17.25
316.366	18.25
317.157	15.25
317.949	15.25
318.74	15.25
319.531	15.25
320.322	13.25
321.113	18.25
321.904	14.25
322.695	14.25
323.486	13.25
324.277	12.25
325.068	13.25
325.858	13.25
326.649	14.25
327.439	15.25
328.23	12.25
329.02	11.25
329.81	10.25
330.6	14.25
331.391	12.25
332.181	11.25
332.971	13.25
333.76	12.25
334.55	13.25
335.34	13.25
336.13	15.25
336.919	12.25
337.709	9.25
338.498	11.25
339.287	11.25
340.077	12.25
340.866	12.25
341.655	13.25
342.444	12.25
343.233	14.25
344.022	11.25
344.811	14.25
345.6	12.25
346.388	13.25
347.177	11.25
347.965	12.25
348.754	11.25
349.542	13.25
350.33	11.25
351.119	11.25
351.907	11.25
352.695	11.25
353.483	11.25
354.271	13.25
355.059	11.25
355.846	10.25
356.634	13.25
357.422	11.25
358.209	10.25
358.997	11.25
359.784	12.25
360.571	11.25
361.359	10.25
362.146	11.25
362.933	10.25
363.72	11.25
364.507	10.25
365.294	13.25
366.081	11.25
366.867	9.25
367.654	9.25
368.44	9.25
369.227	10.25
370.013	10.25
370.8	10.25
371.586	9.25
372.372	8.25
373.158	14.25
373.944	9.25
374.73	11.25
375.516	8.25
376.302	10.25
377.088	8.25
377.873	11.25
378.659	11.25
379.445	9.25
380.23	10.25
381.015	11.25
381.801	10.25
382.586	12.25
383.371	12.25
384.156	11.25
384.941	11.25
385.726	9.25
386.511	11.25
387.296	13.25
388.08	10.25
388.865	13.25
389.649	11.25
390.434	11.25
391.218	9.25
392.003	10.25
392.787	12.25
393.571	12.25
394.355	14.25
395.139	11.25
395.923	14.25
396.707	15.25
397.491	13.25
398.274	16.25
399.058	13.25
399.842	14.25
400.625	13.25
401.408	13.25
402.192	15.25
402.975	14.25
403.758	17.25
404.541	17.25
405.324	17.25
406.107	16.25
406.89	15.25
407.673	15.25
408.456	15.25
409.238	18.25
410.021	17.25
410.803	18.25
411.586	20.25
412.368	18.25
413.151	19.25
413.933	19.25
414.715	21.25
415.497	19.25
416.279	19.25
417.061	23.25
417.843	18.25
418.624	21.25
419.406	17.25
420.188	21.25
420.969	19.25
421.751	22.25
422.532	25.25
423.313	24.25
424.095	23.25
424.876	25.25
425.657	23.25
426.438	28.25
427.219	24.25
428	27.25
428.78	30.25
429.561	29.25
430.342	32.25
431.122	32.25
431.903	32.25
432.683	33.25
433.464	35.25
434.244	37.25
435.024	38.25
435.804	40.25
436.584	42.25
437.364	48.25
438.144	48.25
438.924	51.25
439.704	56.25
440.483	58.25
441.263	61.25
442.042	62.25
442.822	68.25
443.601	73.25
444.38	77.25
445.16	88.25
445.939	91.25
446.718	104.25
447.497	107.25
448.276	115.25
449.054	126.25
449.833	140.25
450.612	159.25
451.391	170.25
452.169	191.25
452.948	205.25
453.726	228.25
454.504	259.25
455.282	287.25
456.061	319.25
456.839	356.25
457.617	397.25
458.395	443.25
459.172	492.25
459.95	554.25
460.728	620.25
461.506	690.25
462.283	764.25
463.061	860.25
463.838	951.25
464.615	1079.25
465.393	1198.25
466.17	1324.25
466.947	1492.25
467.724	1657.25
468.501	1826.25
469.278	2029.25
470.055	2241.25
470.831	2479.25
471.608	2745.25
472.385	3035.25
473.161	3373.25
473.938	3691.25
474.714	4064.25
475.49	4470.25
476.266	4916.25
477.043	5398.25
477.819	5921.25
478.595	6482.25
479.371	7101.25
480.146	7737.25
480.922	8464.25
481.698	9311.25
482.473	10138.25
483.249	11004.25
484.024	12009.25
484.8	13114.25
485.575	14165.25
486.35	15473.25
487.126	16679.25
487.901	18111.25
488.676	19536.25
489.451	21176.25
490.225	22819.25
491	24449.25
491.775	26273.25
492.55	28063.25
493.324	29969.25
494.099	31685.25
494.873	33598.25
495.647	35509.25
496.422	37416.25
497.196	39267.25
497.97	40903.25
498.744	42411.25
499.518	44020.25
500.292	45357.25
501.066	46308.25
501.839	47203.25
502.613	47795.25
503.387	48376.25
504.16	48711.25
504.934	48635.25
505.707	48371.25
506.48	47842.25
507.253	47143.25
508.027	46302.25
508.8	45242.25
509.573	44079.25
510.346	42856.25
511.118	41647.25
511.891	40271.25
512.664	38695.25
513.437	37076.25
514.209	35736.25
514.982	34278.25
515.754	32877.25
516.526	31468.25
517.298	30244.25
518.071	28974.25
518.843	27894.25
519.615	26678.25
520.387	25672.25
521.159	24667.25
521.93	23620.25
522.702	22553.25
523.474	21685.25
524.245	20654.25
525.017	19787.25
525.788	18844.25
526.56	18105.25
527.331	17262.25
528.102	16315.25
528.873	15557.25
529.644	14766.25
530.415	14072.25
531.186	13404.25
531.957	12682.25
532.728	12031.25
533.498	11412.25
534.269	10776.25
535.039	10144.25
535.81	9644.25
536.58	9071.25
537.351	8573.25
538.121	8145.25
538.891	7723.25
539.661	7308.25
540.431	6878.25
541.201	6531.25
541.971	6209.25
542.741	5877.25
543.51	5590.25
544.28	5325.25
545.05	5048.25
545.819	4811.25
546.588	4592.25
547.358	4366.25
548.127	4163.25
548.896	3951.25
549.665	3732.25
550.434	3538.25
551.203	3345.25
551.972	3189.25
552.741	3000.25
553.51	2836.25
554.278	2671.25
555.047	2526.25
555.815	2394.25
556.584	2251.25
557.352	2135.25
558.121	2019.25
558.889	1900.25
559.657	1772.25
560.425	1696.25
561.193	1586.25
561.961	1531.25
562.729	1438.25
563.496	1367.25
564.264	1293.25
565.032	1224.25
565.799	1158.25
566.567	1090.25
567.334	1032.25
568.101	975.25
568.869	928.25
569.636	883.25
570.403	821.25
571.17	782.25
571.937	736.25
572.704	690.25
573.471	648.25
574.237	621.25
575.004	575.25
575.771	540.25
576.537	512.25
577.303	490.25
578.07	460.25
578.836	436.25
579.602	413.25
580.368	397.25
581.134	367.25
581.9	352.25
582.666	335.25
583.432	313.25
584.198	298.25
584.964	290.25
585.729	273.25
586.495	262.25
587.26	243.25
588.025	228.25
588.791	221.25
589.556	216.25
590.321	200.25
591.086	188.25
591.851	179.25
592.616	174.25
593.381	161.25
594.146	153.25
594.911	147.25
595.675	143.25
596.44	133.25
597.204	129.25
597.969	121.25
598.733	115.25
599.497	112.25
600.261	110.25
601.025	104.25
601.79	99.25
602.553	99.25
603.317	88.25
604.081	87.25
604.845	86.25
605.609	81.25
606.372	77.25
607.136	75.25
607.899	73.25
608.662	71.25
609.426	71.25
610.189	67.25
610.952	63.25
611.715	59.25
612.478	59.25
613.241	55.25
614.004	58.25
614.767	52.25
615.529	51.25
616.292	48.25
617.055	47.25
617.817	46.25
618.579	44.25
619.342	41.25
620.104	45.25
620.866	41.25
621.628	36.25
622.39	39.25
623.152	38.25
623.914	34.25
624.676	33.25
625.438	35.25
626.199	33.25
626.961	30.25
627.722	33.25
628.484	29.25
629.245	29.25
630.006	30.25
630.768	25.25
631.529	28.25
632.29	26.25
633.051	24.25
633.812	24.25
634.573	27.25
635.333	24.25
636.094	24.25
636.855	23.25
637.615	20.25
638.376	21.25
639.136	23.25
639.896	21.25
640.657	19.25
641.417	20.25
642.177	17.25
642.937	19.25
643.697	17.25
644.457	21.25
645.216	18.25
645.976	18.25
646.736	16.25
647.495	18.25
648.255	17.25
649.014	14.25
649.774	16.25
650.533	13.25
651.292	15.25
652.051	16.25
652.81	12.25
653.569	15.25
654.328	15.25
655.087	13.25
655.846	13.25
656.604	13.25
657.363	15.25
658.121	11.25
658.88	13.25
659.638	11.25
660.397	11.25
661.155	11.25
661.913	11.25
662.671	11.25
663.429	12.25
664.187	11.25
664.945	10.25
665.703	8.25
666.46	11.25
667.218	9.25
667.976	11.25
668.733	10.25
669.49	10.25
670.248	7.25
671.005	11.25
671.762	10.25
672.519	8.25
673.276	8.25
674.033	8.25
674.79	10.25
675.547	10.25
676.304	7.25
677.06	10.25
677.817	8.25
678.574	12.25
679.33	9.25
680.086	9.25
680.843	10.25
681.599	5.25
682.355	7.25
683.111	11.25
683.867	8.25
684.623	9.25
685.379	7.25
686.135	11.25
686.89	10.25
687.646	10.25
688.402	10.25
689.157	9.25
689.912	9.25
690.668	9.25
691.423	8.25
692.178	8.25
692.933	9.25
693.688	9.25
694.443	8.25
695.198	9.25
695.953	8.25
696.708	6.25
697.462	10.25
698.217	7.25
698.972	8.25
699.726	6.25
700.48	7.25
701.235	8.25
701.989	7.25
702.743	9.25
703.497	7.25
704.251	6.25
705.005	7.25
705.759	8.25
706.513	8.25
707.266	7.25
708.02	9.25
708.774	7.25
709.527	11.25
710.28	7.25
711.034	8.25
711.787	7.25
712.54	8.25
713.293	8.25
714.046	6.25
714.799	10.25
715.552	9.25
716.305	9.25
717.058	8.25
717.81	10.25
718.563	10.25
719.315	11.25
720.068	7.25
720.82	8.25
721.573	7.25
722.325	10.25
723.077	8.25
723.829	9.25
724.581	9.25
725.333	9.25
726.085	10.25
726.836	8.25
727.588	11.25
728.34	9.25
729.091	9.25
729.843	8.25
730.594	12.25
731.346	10.25
732.097	10.25
732.848	11.25
733.599	10.25
734.35	9.25
735.101	13.25
735.852	8.25
736.603	9.25
737.354	10.25
738.104	9.25
738.855	9.25
739.605	9.25
740.356	11.25
741.106	10.25
741.856	9.25
742.607	12.25
743.357	12.25
744.107	10.25
744.857	10.25
745.607	11.25
746.357	13.25
747.106	11.25
747.856	13.25
748.606	10.25
749.355	10.25
750.105	9.25
750.854	14.25
751.603	11.25
752.353	10.25
753.102	12.25
753.851	15.25
754.6	13.25
755.349	12.25
756.098	11.25
756.847	14.25
757.595	13.25
758.344	13.25
759.093	14.25
759.841	15.25
760.589	12.25
761.338	14.25
762.086	14.25
762.834	15.25
763.582	15.25
764.331	12.25
765.079	16.25
765.826	13.25
766.574	14.25
767.322	17.25
768.07	15.25
768.817	17.25
769.565	16.25
770.312	16.25
771.06	15.25
771.807	15.25
772.554	16.25
773.302	16.25
774.049	15.25
774.796	18.25
775.543	18.25
776.29	19.25
777.036	13.25
777.783	15.25
778.53	12.25
779.276	17.25
780.023	13.25
780.769	18.25
781.516	17.25
782.262	16.25
783.008	17.25
783.754	17.25
784.5	15.25
785.246	19.25
785.992	17.25
786.738	15.25
787.484	14.25
788.23	15.25
788.975	15.25
789.721	15.25
790.466	15.25
791.212	15.25
791.957	13.25
792.702	14.25
793.447	14.25
794.193	13.25
794.938	15.25
795.683	13.25
796.427	12.25
797.172	12.25
797.917	11.25
798.662	16.25
799.406	13.25
800.151	13.25
800.895	14.25
801.64	10.25
802.384	13.25
803.128	12.25
803.872	14.25
804.616	10.25
805.36	12.25
806.104	14.25
806.848	9.25
807.592	9.25
808.336	10.25
809.079	9.25
809.823	11.25
810.566	11.25
811.31	12.25
812.053	9.25
812.796	12.25
813.539	11.25
814.283	9.25
815.026	8.25
815.769	7.25
816.511	8.25
817.254	8.25
817.997	7.25
818.74	9.25
819.482	7.25
820.225	8.25
820.967	7.25
821.71	9.25
822.452	8.25
823.194	5.25
823.936	9.25
824.678	7.25
825.42	6.25
826.162	9.25
826.904	9.25
827.646	8.25
828.388	7.25
829.129	7.25
829.871	8.25
830.612	8.25
831.354	8.25
832.095	7.25
832.836	5.25
833.577	7.25
834.319	5.25
835.06	5.25
835.801	6.25
836.542	4.25
837.282	6.25
838.023	7.25
838.764	5.25
839.504	7.25
840.245	5.25
840.985	5.25
841.726	5.25
842.466	6.25
843.206	6.25
843.946	4.25
844.687	5.25
845.427	6.25
846.166	6.25
846.906	6.25
847.646	3.25
848.386	7.25
849.125	6.25
849.865	6.25
850.605	4.25
851.344	5.25
852.083	8.25
852.823	3.25
853.562	5.25
854.301	6.25
855.04	4.25
855.779	5.25
856.518	5.25
857.257	5.25
857.995	5.25
858.734	2.25
859.473	7.25
860.211	5.25
860.95	5.25
861.688	4.25
862.426	5.25
863.165	3.25
863.903	3.25
864.641	4.25
865.379	2.25
866.117	2.25
866.855	3.25
867.593	2.25
868.33	1.25
869.068	1.25
869.806	5.25
870.543	5.25
871.28	2.25
872.018	3.25
872.755	3.25
873.492	4.25
874.229	4.25
874.967	4.25
875.703	3.25
876.44	4.25
877.177	0.25
877.914	2.25
878.651	6.25
879.387	0.25
880.124	4.25
880.86	4.25
881.597	1.25
882.333	1.25
883.069	1.25
883.806	1.25
884.542	0.25
885.278	3.25
886.014	2.25
886.749	1.25
887.485	1.25
888.221	-0.75
888.957	1.25
889.692	-0.75
890.428	0.25
891.163	0.25
891.899	0.25
892.634	3.25
893.369	2.25
894.104	0.25
894.839	1.25
895.574	2.25
896.309	2.25
897.044	1.25
897.779	1.25
898.514	-0.75
899.248	1.25
899.983	1.25
900.717	1.25
901.452	1.25
902.186	2.25
902.92	0.25
903.654	0.25
904.389	1.25
905.123	2.25
905.857	-0.75
906.59	2.25
907.324	1.25
908.058	2.25
908.792	2.25
909.525	1.25
910.259	1.25
910.992	1.25
911.726	0.25
912.459	1.25
913.192	3.25
913.925	1.25
914.658	-0.75
915.391	1.25
916.124	-0.75
916.857	0.25
917.59	1.25
918.323	1.25
919.055	0.25
919.788	0.25
920.521	1.25
921.253	-0.75
921.985	1.25
922.718	1.25
923.45	1.25
924.182	2.25
924.914	1.25
925.646	-0.75
926.378	-0.75
927.11	3.25
927.841	1.25
928.573	-0.75
929.305	1.25
930.036	3.25
930.768	3.25
931.499	3.25
932.23	2.25
932.962	2.25
933.693	1.25
934.424	2.25
935.155	1.25
935.886	2.25
936.617	1.25
937.348	0.25
938.078	0.25
938.809	-0.75
939.54	0.25
940.27	0.25
941.001	-1.75
941.731	-0.75
942.461	-0.75
943.191	1.25
943.922	-1.75
944.652	3.25
945.382	1.25
946.112	-1.75
946.841	0.25
947.571	1.25
948.301	-2.75
949.031	1.25
949.76	0.25
950.49	1.25
951.219	-1.75
951.948	1.25
952.678	1.25
953.407	2.25
954.136	-1.75
954.865	-0.75
955.594	1.25
956.323	-0.75
957.052	0.25
957.78	-0.75
958.509	2.25
959.238	-0.75
959.966	0.25
960.695	2.25
961.423	1.25
962.151	0.25
962.88	0.25
963.608	1.25
964.336	0.25
965.064	-0.75
965.792	0.25
966.52	1.25
967.247	-1.75
967.975	3.25
968.703	0.25
969.43	1.25
970.158	2.25
970.885	1.25
971.613	0.25
972.34	1.25
973.067	2.25
973.794	0.25
974.521	2.25
975.248	1.25
975.975	1.25
976.702	2.25
977.429	-1.75
978.156	2.25
978.882	1.25
979.609	2.25
980.335	0.25
981.062	0.25
981.788	2.25
982.514	1.25
983.24	-0.75
983.967	0.25
984.693	2.25
985.419	0.25
986.144	1.25
986.87	0.25
987.596	-1.75
988.322	0.25
989.047	2.25
989.773	1.25
990.498	-0.75
991.224	4.25
991.949	-0.75
992.674	0.25
993.399	0.25
994.124	1.25
994.849	0.25
995.574	1.25
996.299	0.25
997.024	1.25
997.749	0.25
998.473	0.25
999.198	1.25
999.922	2.25
1000.647	0.25
1001.371	4.25
1002.095	-1.75
1002.82	-1.75
1003.544	-0.75
1004.268	6.25
1004.992	6.25
1005.716	3.25
1006.439	5.25
1007.163	4.25
1007.887	8.25
1008.611	0.25
1009.334	-0.75
1010.058	0.25
1010.781	1.25
1011.504	0.25
1012.228	0.25
1012.951	-0.75
1013.674	1.25
1014.397	-0.75
1015.12	0.25
