节点500_705_QEPB04081__258__20-49-36-417.txt的数据

Date: Wed Nov 12 20:49:36 CST 2025
User: PC
Spectrometer: QEPB0408
触发模式: 0
积分时间 (秒): 1.000000E-2
Scans to average: 1
启用暗噪声校正: true
启用非线性校正: false
滑动平均宽度: 0
X轴模式: Wavelengths
Number of Pixels in Spectrum: 1044
>>>>>Begin Spectral Data<<<<<
220.843	4.25
221.644	4.25
222.444	3.25
223.244	4.25
224.045	4.25
224.845	7.25
225.645	4.25
226.445	7.25
227.245	7.25
228.045	6.25
228.845	9.25
229.645	8.25
230.444	10.25
231.244	4.25
232.043	9.25
232.843	10.25
233.642	10.25
234.442	8.25
235.241	9.25
236.04	10.25
236.839	9.25
237.638	8.25
238.437	14.25
239.236	10.25
240.035	9.25
240.833	10.25
241.632	10.25
242.43	10.25
243.229	12.25
244.027	12.25
244.826	13.25
245.624	13.25
246.422	16.25
247.22	14.25
248.018	16.25
248.816	14.25
249.614	19.25
250.412	14.25
251.21	16.25
252.007	15.25
252.805	18.25
253.602	16.25
254.4	21.25
255.197	16.25
255.994	20.25
256.791	20.25
257.589	22.25
258.386	20.25
259.183	22.25
259.979	21.25
260.776	22.25
261.573	24.25
262.37	24.25
263.166	24.25
263.963	23.25
264.759	26.25
265.556	27.25
266.352	28.25
267.148	26.25
267.944	27.25
268.74	31.25
269.536	34.25
270.332	30.25
271.128	31.25
271.924	30.25
272.719	36.25
273.515	32.25
274.311	33.25
275.106	32.25
275.901	33.25
276.697	36.25
277.492	35.25
278.287	37.25
279.082	34.25
279.877	32.25
280.672	35.25
281.467	33.25
282.262	38.25
283.056	37.25
283.851	34.25
284.646	34.25
285.44	35.25
286.234	33.25
287.029	36.25
287.823	33.25
288.617	31.25
289.411	31.25
290.205	33.25
290.999	34.25
291.793	31.25
292.587	31.25
293.381	28.25
294.174	30.25
294.968	28.25
295.761	29.25
296.555	29.25
297.348	28.25
298.141	26.25
298.935	26.25
299.728	25.25
300.521	27.25
301.314	24.25
302.107	22.25
302.899	21.25
303.692	20.25
304.485	20.25
305.277	22.25
306.07	21.25
306.862	22.25
307.655	19.25
308.447	20.25
309.239	18.25
310.031	19.25
310.823	18.25
311.615	18.25
312.407	18.25
313.199	20.25
313.991	17.25
314.783	16.25
315.574	17.25
316.366	18.25
317.157	16.25
317.949	17.25
318.74	14.25
319.531	13.25
320.322	14.25
321.113	13.25
321.904	13.25
322.695	13.25
323.486	14.25
324.277	12.25
325.068	15.25
325.858	12.25
326.649	12.25
327.439	12.25
328.23	11.25
329.02	11.25
329.81	12.25
330.6	14.25
331.391	13.25
332.181	12.25
332.971	10.25
333.76	10.25
334.55	11.25
335.34	12.25
336.13	11.25
336.919	10.25
337.709	11.25
338.498	12.25
339.287	12.25
340.077	11.25
340.866	8.25
341.655	12.25
342.444	11.25
343.233	11.25
344.022	11.25
344.811	10.25
345.6	12.25
346.388	13.25
347.177	11.25
347.965	12.25
348.754	11.25
349.542	10.25
350.33	11.25
351.119	11.25
351.907	10.25
352.695	10.25
353.483	9.25
354.271	11.25
355.059	10.25
355.846	11.25
356.634	8.25
357.422	11.25
358.209	10.25
358.997	8.25
359.784	10.25
360.571	9.25
361.359	10.25
362.146	9.25
362.933	10.25
363.72	11.25
364.507	8.25
365.294	9.25
366.081	6.25
366.867	12.25
367.654	9.25
368.44	10.25
369.227	8.25
370.013	8.25
370.8	11.25
371.586	8.25
372.372	8.25
373.158	10.25
373.944	9.25
374.73	8.25
375.516	9.25
376.302	10.25
377.088	10.25
377.873	8.25
378.659	10.25
379.445	8.25
380.23	10.25
381.015	12.25
381.801	9.25
382.586	10.25
383.371	10.25
384.156	8.25
384.941	10.25
385.726	10.25
386.511	9.25
387.296	11.25
388.08	12.25
388.865	11.25
389.649	10.25
390.434	12.25
391.218	10.25
392.003	10.25
392.787	9.25
393.571	12.25
394.355	11.25
395.139	13.25
395.923	13.25
396.707	10.25
397.491	10.25
398.274	14.25
399.058	14.25
399.842	14.25
400.625	12.25
401.408	11.25
402.192	13.25
402.975	13.25
403.758	9.25
404.541	14.25
405.324	14.25
406.107	14.25
406.89	14.25
407.673	12.25
408.456	15.25
409.238	13.25
410.021	16.25
410.803	14.25
411.586	14.25
412.368	18.25
413.151	16.25
413.933	19.25
414.715	18.25
415.497	18.25
416.279	20.25
417.061	16.25
417.843	17.25
418.624	17.25
419.406	23.25
420.188	21.25
420.969	20.25
421.751	18.25
422.532	23.25
423.313	21.25
424.095	23.25
424.876	25.25
425.657	23.25
426.438	23.25
427.219	25.25
428	24.25
428.78	24.25
429.561	29.25
430.342	29.25
431.122	30.25
431.903	28.25
432.683	35.25
433.464	33.25
434.244	36.25
435.024	39.25
435.804	39.25
436.584	43.25
437.364	43.25
438.144	45.25
438.924	47.25
439.704	55.25
440.483	56.25
441.263	61.25
442.042	65.25
442.822	68.25
443.601	77.25
444.38	79.25
445.16	86.25
445.939	89.25
446.718	97.25
447.497	110.25
448.276	122.25
449.054	131.25
449.833	149.25
450.612	153.25
451.391	173.25
452.169	188.25
452.948	206.25
453.726	232.25
454.504	262.25
455.282	296.25
456.061	321.25
456.839	361.25
457.617	399.25
458.395	444.25
459.172	504.25
459.95	557.25
460.728	616.25
461.506	692.25
462.283	774.25
463.061	870.25
463.838	965.25
464.615	1066.25
465.393	1197.25
466.17	1344.25
466.947	1494.25
467.724	1641.25
468.501	1836.25
469.278	2021.25
470.055	2226.25
470.831	2493.25
471.608	2738.25
472.385	3028.25
473.161	3347.25
473.938	3690.25
474.714	4054.25
475.49	4477.25
476.266	4882.25
477.043	5368.25
477.819	5862.25
478.595	6441.25
479.371	7030.25
480.146	7664.25
480.922	8403.25
481.698	9174.25
482.473	10008.25
483.249	10894.25
484.024	11837.25
484.8	12845.25
485.575	14005.25
486.35	15205.25
487.126	16424.25
487.901	17767.25
488.676	19202.25
489.451	20749.25
490.225	22286.25
491	23952.25
491.775	25626.25
492.55	27382.25
493.324	29235.25
494.099	31071.25
494.873	32894.25
495.647	34763.25
496.422	36590.25
497.196	38370.25
497.97	40111.25
498.744	41654.25
499.518	43161.25
500.292	44519.25
501.066	45585.25
501.839	46392.25
502.613	47022.25
503.387	47655.25
504.16	48030.25
504.934	48055.25
505.707	47901.25
506.48	47463.25
507.253	46886.25
508.027	46110.25
508.8	44980.25
509.573	43854.25
510.346	42739.25
511.118	41715.25
511.891	40233.25
512.664	38718.25
513.437	37273.25
514.209	35806.25
514.982	34429.25
515.754	32952.25
516.526	31616.25
517.298	30346.25
518.071	29082.25
518.843	27921.25
519.615	26821.25
520.387	25829.25
521.159	24742.25
521.93	23714.25
522.702	22677.25
523.474	21762.25
524.245	20863.25
525.017	19853.25
525.788	18940.25
526.56	18210.25
527.331	17361.25
528.102	16485.25
528.873	15635.25
529.644	14934.25
530.415	14249.25
531.186	13527.25
531.957	12817.25
532.728	12109.25
533.498	11521.25
534.269	10886.25
535.039	10267.25
535.81	9734.25
536.58	9204.25
537.351	8705.25
538.121	8242.25
538.891	7799.25
539.661	7375.25
540.431	7006.25
541.201	6624.25
541.971	6300.25
542.741	5927.25
543.51	5656.25
544.28	5376.25
545.05	5120.25
545.819	4908.25
546.588	4650.25
547.358	4461.25
548.127	4200.25
548.896	3989.25
549.665	3788.25
550.434	3601.25
551.203	3396.25
551.972	3215.25
552.741	3053.25
553.51	2864.25
554.278	2705.25
555.047	2541.25
555.815	2427.25
556.584	2278.25
557.352	2154.25
558.121	2045.25
558.889	1930.25
559.657	1824.25
560.425	1723.25
561.193	1635.25
561.961	1534.25
562.729	1457.25
563.496	1381.25
564.264	1294.25
565.032	1230.25
565.799	1167.25
566.567	1098.25
567.334	1045.25
568.101	990.25
568.869	934.25
569.636	892.25
570.403	833.25
571.17	780.25
571.937	746.25
572.704	702.25
573.471	666.25
574.237	628.25
575.004	597.25
575.771	553.25
576.537	520.25
577.303	495.25
578.07	465.25
578.836	439.25
579.602	418.25
580.368	398.25
581.134	375.25
581.9	355.25
582.666	343.25
583.432	325.25
584.198	304.25
584.964	292.25
585.729	273.25
586.495	257.25
587.26	250.25
588.025	231.25
588.791	222.25
589.556	216.25
590.321	202.25
591.086	191.25
591.851	183.25
592.616	174.25
593.381	164.25
594.146	155.25
594.911	147.25
595.675	142.25
596.44	141.25
597.204	133.25
597.969	125.25
598.733	114.25
599.497	115.25
600.261	108.25
601.025	104.25
601.79	100.25
602.553	96.25
603.317	91.25
604.081	89.25
604.845	81.25
605.609	82.25
606.372	78.25
607.136	75.25
607.899	70.25
608.662	74.25
609.426	66.25
610.189	64.25
610.952	64.25
611.715	62.25
612.478	58.25
613.241	55.25
614.004	52.25
614.767	53.25
615.529	51.25
616.292	46.25
617.055	47.25
617.817	46.25
618.579	48.25
619.342	41.25
620.104	39.25
620.866	39.25
621.628	41.25
622.39	41.25
623.152	35.25
623.914	35.25
624.676	36.25
625.438	34.25
626.199	33.25
626.961	35.25
627.722	28.25
628.484	25.25
629.245	30.25
630.006	26.25
630.768	28.25
631.529	24.25
632.29	22.25
633.051	24.25
633.812	23.25
634.573	22.25
635.333	21.25
636.094	22.25
636.855	20.25
637.615	18.25
638.376	21.25
639.136	18.25
639.896	20.25
640.657	18.25
641.417	20.25
642.177	16.25
642.937	18.25
643.697	20.25
644.457	16.25
645.216	16.25
645.976	17.25
646.736	17.25
647.495	14.25
648.255	15.25
649.014	14.25
649.774	14.25
650.533	15.25
651.292	15.25
652.051	13.25
652.81	11.25
653.569	14.25
654.328	14.25
655.087	10.25
655.846	11.25
656.604	12.25
657.363	11.25
658.121	11.25
658.88	10.25
659.638	9.25
660.397	9.25
661.155	12.25
661.913	12.25
662.671	10.25
663.429	11.25
664.187	10.25
664.945	9.25
665.703	10.25
666.46	10.25
667.218	10.25
667.976	10.25
668.733	10.25
669.49	10.25
670.248	9.25
671.005	8.25
671.762	9.25
672.519	8.25
673.276	10.25
674.033	8.25
674.79	10.25
675.547	7.25
676.304	6.25
677.06	10.25
677.817	10.25
678.574	7.25
679.33	5.25
680.086	9.25
680.843	5.25
681.599	6.25
682.355	7.25
683.111	7.25
683.867	8.25
684.623	8.25
685.379	5.25
686.135	6.25
686.89	9.25
687.646	7.25
688.402	3.25
689.157	7.25
689.912	7.25
690.668	7.25
691.423	8.25
692.178	6.25
692.933	8.25
693.688	9.25
694.443	9.25
695.198	10.25
695.953	9.25
696.708	7.25
697.462	6.25
698.217	8.25
698.972	8.25
699.726	6.25
700.48	6.25
701.235	5.25
701.989	6.25
702.743	7.25
703.497	6.25
704.251	6.25
705.005	9.25
705.759	7.25
706.513	8.25
707.266	5.25
708.02	5.25
708.774	7.25
709.527	7.25
710.28	10.25
711.034	6.25
711.787	6.25
712.54	8.25
713.293	6.25
714.046	6.25
714.799	6.25
715.552	8.25
716.305	9.25
717.058	4.25
717.81	4.25
718.563	8.25
719.315	9.25
720.068	7.25
720.82	9.25
721.573	8.25
722.325	6.25
723.077	8.25
723.829	4.25
724.581	6.25
725.333	8.25
726.085	8.25
726.836	8.25
727.588	9.25
728.34	8.25
729.091	8.25
729.843	9.25
730.594	8.25
731.346	7.25
732.097	8.25
732.848	8.25
733.599	5.25
734.35	6.25
735.101	11.25
735.852	12.25
736.603	8.25
737.354	9.25
738.104	10.25
738.855	8.25
739.605	11.25
740.356	7.25
741.106	12.25
741.856	8.25
742.607	7.25
743.357	10.25
744.107	8.25
744.857	13.25
745.607	8.25
746.357	8.25
747.106	12.25
747.856	9.25
748.606	9.25
749.355	12.25
750.105	10.25
750.854	11.25
751.603	11.25
752.353	13.25
753.102	11.25
753.851	12.25
754.6	14.25
755.349	12.25
756.098	12.25
756.847	9.25
757.595	15.25
758.344	11.25
759.093	12.25
759.841	10.25
760.589	11.25
761.338	13.25
762.086	11.25
762.834	12.25
763.582	12.25
764.331	12.25
765.079	14.25
765.826	11.25
766.574	14.25
767.322	13.25
768.07	13.25
768.817	13.25
769.565	12.25
770.312	15.25
771.06	12.25
771.807	16.25
772.554	13.25
773.302	14.25
774.049	15.25
774.796	15.25
775.543	15.25
776.29	16.25
777.036	14.25
777.783	12.25
778.53	16.25
779.276	17.25
780.023	15.25
780.769	17.25
781.516	12.25
782.262	17.25
783.008	15.25
783.754	14.25
784.5	13.25
785.246	14.25
785.992	17.25
786.738	14.25
787.484	14.25
788.23	12.25
788.975	15.25
789.721	14.25
790.466	13.25
791.212	14.25
791.957	18.25
792.702	13.25
793.447	13.25
794.193	13.25
794.938	13.25
795.683	11.25
796.427	11.25
797.172	13.25
797.917	12.25
798.662	12.25
799.406	10.25
800.151	14.25
800.895	12.25
801.64	13.25
802.384	11.25
803.128	8.25
803.872	10.25
804.616	10.25
805.36	14.25
806.104	10.25
806.848	10.25
807.592	11.25
808.336	9.25
809.079	12.25
809.823	10.25
810.566	12.25
811.31	10.25
812.053	6.25
812.796	11.25
813.539	8.25
814.283	9.25
815.026	6.25
815.769	10.25
816.511	8.25
817.254	9.25
817.997	6.25
818.74	8.25
819.482	6.25
820.225	8.25
820.967	7.25
821.71	5.25
822.452	8.25
823.194	5.25
823.936	7.25
824.678	6.25
825.42	5.25
826.162	6.25
826.904	8.25
827.646	4.25
828.388	5.25
829.129	6.25
829.871	7.25
830.612	6.25
831.354	5.25
832.095	5.25
832.836	3.25
833.577	4.25
834.319	4.25
835.06	5.25
835.801	7.25
836.542	4.25
837.282	3.25
838.023	6.25
838.764	6.25
839.504	5.25
840.245	6.25
840.985	4.25
841.726	4.25
842.466	5.25
843.206	5.25
843.946	4.25
844.687	4.25
845.427	2.25
846.166	1.25
846.906	5.25
847.646	6.25
848.386	5.25
849.125	4.25
849.865	5.25
850.605	0.25
851.344	6.25
852.083	3.25
852.823	4.25
853.562	5.25
854.301	5.25
855.04	6.25
855.779	2.25
856.518	5.25
857.257	4.25
857.995	3.25
858.734	4.25
859.473	3.25
860.211	3.25
860.95	2.25
861.688	4.25
862.426	3.25
863.165	2.25
863.903	1.25
864.641	1.25
865.379	4.25
866.117	2.25
866.855	2.25
867.593	2.25
868.33	2.25
869.068	-0.75
869.806	3.25
870.543	2.25
871.28	2.25
872.018	0.25
872.755	2.25
873.492	0.25
874.229	5.25
874.967	1.25
875.703	0.25
876.44	2.25
877.177	4.25
877.914	1.25
878.651	1.25
879.387	-0.75
880.124	2.25
880.86	2.25
881.597	1.25
882.333	0.25
883.069	1.25
883.806	1.25
884.542	1.25
885.278	-0.75
886.014	1.25
886.749	0.25
887.485	1.25
888.221	2.25
888.957	1.25
889.692	1.25
890.428	2.25
891.163	0.25
891.899	1.25
892.634	-0.75
893.369	3.25
894.104	3.25
894.839	-1.75
895.574	0.25
896.309	-0.75
897.044	0.25
897.779	0.25
898.514	1.25
899.248	1.25
899.983	-1.75
900.717	2.25
901.452	-0.75
902.186	-0.75
902.92	0.25
903.654	0.25
904.389	1.25
905.123	-1.75
905.857	0.25
906.59	-0.75
907.324	1.25
908.058	1.25
908.792	-0.75
909.525	0.25
910.259	0.25
910.992	0.25
911.726	0.25
912.459	-1.75
913.192	0.25
913.925	0.25
914.658	-0.75
915.391	-0.75
916.124	-0.75
916.857	1.25
917.59	0.25
918.323	-0.75
919.055	1.25
919.788	2.25
920.521	-0.75
921.253	1.25
921.985	-0.75
922.718	-1.75
923.45	0.25
924.182	-0.75
924.914	-0.75
925.646	0.25
926.378	-1.75
927.11	1.25
927.841	0.25
928.573	1.25
929.305	0.25
930.036	-0.75
930.768	-0.75
931.499	-0.75
932.23	0.25
932.962	-0.75
933.693	1.25
934.424	0.25
935.155	-1.75
935.886	-0.75
936.617	-1.75
937.348	0.25
938.078	-1.75
938.809	0.25
939.54	-0.75
940.27	1.25
941.001	0.25
941.731	-0.75
942.461	1.25
943.191	0.25
943.922	-0.75
944.652	-0.75
945.382	0.25
946.112	0.25
946.841	-1.75
947.571	-0.75
948.301	-1.75
949.031	-0.75
949.76	-3.75
950.49	0.25
951.219	0.25
951.948	1.25
952.678	1.25
953.407	-0.75
954.136	0.25
954.865	0.25
955.594	0.25
956.323	0.25
957.052	0.25
957.78	-0.75
958.509	-1.75
959.238	1.25
959.966	0.25
960.695	-1.75
961.423	1.25
962.151	-0.75
962.88	-0.75
963.608	0.25
964.336	-1.75
965.064	-1.75
965.792	-1.75
966.52	-1.75
967.247	0.25
967.975	-1.75
968.703	-2.75
969.43	-1.75
970.158	0.25
970.885	2.25
971.613	-0.75
972.34	-1.75
973.067	-0.75
973.794	-0.75
974.521	-1.75
975.248	1.25
975.975	-0.75
976.702	1.25
977.429	0.25
978.156	-0.75
978.882	1.25
979.609	0.25
980.335	-0.75
981.062	1.25
981.788	0.25
982.514	1.25
983.24	-1.75
983.967	-0.75
984.693	-0.75
985.419	-1.75
986.144	2.25
986.87	1.25
987.596	-0.75
988.322	0.25
989.047	-1.75
989.773	2.25
990.498	1.25
991.224	0.25
991.949	-0.75
992.674	-0.75
993.399	-0.75
994.124	-1.75
994.849	1.25
995.574	-0.75
996.299	0.25
997.024	0.25
997.749	-1.75
998.473	1.25
999.198	-2.75
999.922	3.25
1000.647	2.25
1001.371	1.25
1002.095	0.25
1002.82	-0.75
1003.544	-1.75
1004.268	4.25
1004.992	2.25
1005.716	3.25
1006.439	4.25
1007.163	5.25
1007.887	4.25
1008.611	-0.75
1009.334	0.25
1010.058	-0.75
1010.781	-1.75
1011.504	0.25
1012.228	0.25
1012.951	-0.75
1013.674	0.25
1014.397	0.25
1015.12	1.25
