节点500_705_QEPB04081__456__20-52-21-767.txt的数据

Date: Wed Nov 12 20:52:21 CST 2025
User: PC
Spectrometer: QEPB0408
触发模式: 0
积分时间 (秒): 1.000000E-2
Scans to average: 1
启用暗噪声校正: true
启用非线性校正: false
滑动平均宽度: 0
X轴模式: Wavelengths
Number of Pixels in Spectrum: 1044
>>>>>Begin Spectral Data<<<<<
220.843	4.38
221.644	5.38
222.444	4.38
223.244	6.38
224.045	5.38
224.845	7.38
225.645	4.38
226.445	6.38
227.245	7.38
228.045	8.38
228.845	9.38
229.645	8.38
230.444	8.38
231.244	8.38
232.043	9.38
232.843	10.38
233.642	7.38
234.442	10.38
235.241	9.38
236.04	9.38
236.839	12.38
237.638	9.38
238.437	9.38
239.236	11.38
240.035	11.38
240.833	11.38
241.632	10.38
242.43	11.38
243.229	11.38
244.027	11.38
244.826	9.38
245.624	15.38
246.422	13.38
247.22	13.38
248.018	13.38
248.816	16.38
249.614	15.38
250.412	14.38
251.21	16.38
252.007	17.38
252.805	14.38
253.602	19.38
254.4	20.38
255.197	17.38
255.994	16.38
256.791	19.38
257.589	20.38
258.386	20.38
259.183	18.38
259.979	21.38
260.776	19.38
261.573	21.38
262.37	24.38
263.166	23.38
263.963	24.38
264.759	24.38
265.556	24.38
266.352	24.38
267.148	28.38
267.944	25.38
268.74	29.38
269.536	26.38
270.332	27.38
271.128	29.38
271.924	30.38
272.719	33.38
273.515	29.38
274.311	34.38
275.106	30.38
275.901	32.38
276.697	30.38
277.492	32.38
278.287	31.38
279.082	34.38
279.877	32.38
280.672	33.38
281.467	34.38
282.262	33.38
283.056	30.38
283.851	33.38
284.646	33.38
285.44	33.38
286.234	33.38
287.029	32.38
287.823	33.38
288.617	36.38
289.411	32.38
290.205	32.38
290.999	31.38
291.793	33.38
292.587	31.38
293.381	30.38
294.174	27.38
294.968	27.38
295.761	24.38
296.555	24.38
297.348	30.38
298.141	26.38
298.935	30.38
299.728	25.38
300.521	25.38
301.314	25.38
302.107	24.38
302.899	25.38
303.692	23.38
304.485	23.38
305.277	24.38
306.07	21.38
306.862	24.38
307.655	22.38
308.447	19.38
309.239	22.38
310.031	20.38
310.823	20.38
311.615	19.38
312.407	18.38
313.199	17.38
313.991	17.38
314.783	16.38
315.574	20.38
316.366	15.38
317.157	14.38
317.949	15.38
318.74	14.38
319.531	16.38
320.322	15.38
321.113	13.38
321.904	14.38
322.695	12.38
323.486	12.38
324.277	12.38
325.068	12.38
325.858	12.38
326.649	14.38
327.439	11.38
328.23	12.38
329.02	13.38
329.81	12.38
330.6	15.38
331.391	11.38
332.181	13.38
332.971	13.38
333.76	14.38
334.55	11.38
335.34	11.38
336.13	10.38
336.919	13.38
337.709	8.38
338.498	14.38
339.287	14.38
340.077	13.38
340.866	10.38
341.655	10.38
342.444	14.38
343.233	15.38
344.022	11.38
344.811	10.38
345.6	11.38
346.388	13.38
347.177	11.38
347.965	12.38
348.754	12.38
349.542	11.38
350.33	11.38
351.119	8.38
351.907	12.38
352.695	11.38
353.483	10.38
354.271	14.38
355.059	12.38
355.846	12.38
356.634	10.38
357.422	11.38
358.209	11.38
358.997	15.38
359.784	14.38
360.571	9.38
361.359	11.38
362.146	9.38
362.933	11.38
363.72	10.38
364.507	11.38
365.294	8.38
366.081	8.38
366.867	9.38
367.654	9.38
368.44	9.38
369.227	10.38
370.013	8.38
370.8	13.38
371.586	11.38
372.372	10.38
373.158	8.38
373.944	9.38
374.73	10.38
375.516	10.38
376.302	10.38
377.088	8.38
377.873	10.38
378.659	7.38
379.445	10.38
380.23	11.38
381.015	10.38
381.801	12.38
382.586	9.38
383.371	8.38
384.156	12.38
384.941	9.38
385.726	11.38
386.511	11.38
387.296	10.38
388.08	10.38
388.865	14.38
389.649	9.38
390.434	10.38
391.218	10.38
392.003	11.38
392.787	11.38
393.571	13.38
394.355	13.38
395.139	12.38
395.923	11.38
396.707	12.38
397.491	15.38
398.274	14.38
399.058	15.38
399.842	13.38
400.625	14.38
401.408	14.38
402.192	14.38
402.975	11.38
403.758	13.38
404.541	15.38
405.324	14.38
406.107	15.38
406.89	15.38
407.673	14.38
408.456	14.38
409.238	14.38
410.021	18.38
410.803	17.38
411.586	16.38
412.368	18.38
413.151	16.38
413.933	18.38
414.715	18.38
415.497	20.38
416.279	17.38
417.061	19.38
417.843	19.38
418.624	20.38
419.406	19.38
420.188	22.38
420.969	21.38
421.751	21.38
422.532	24.38
423.313	24.38
424.095	26.38
424.876	24.38
425.657	26.38
426.438	29.38
427.219	25.38
428	27.38
428.78	30.38
429.561	27.38
430.342	28.38
431.122	33.38
431.903	32.38
432.683	36.38
433.464	36.38
434.244	34.38
435.024	39.38
435.804	41.38
436.584	43.38
437.364	45.38
438.144	48.38
438.924	54.38
439.704	53.38
440.483	57.38
441.263	55.38
442.042	67.38
442.822	71.38
443.601	81.38
444.38	85.38
445.16	88.38
445.939	97.38
446.718	108.38
447.497	115.38
448.276	124.38
449.054	140.38
449.833	151.38
450.612	166.38
451.391	185.38
452.169	203.38
452.948	220.38
453.726	251.38
454.504	277.38
455.282	306.38
456.061	342.38
456.839	387.38
457.617	425.38
458.395	469.38
459.172	531.38
459.95	589.38
460.728	657.38
461.506	735.38
462.283	806.38
463.061	910.38
463.838	1005.38
464.615	1134.38
465.393	1245.38
466.17	1372.38
466.947	1523.38
467.724	1675.38
468.501	1867.38
469.278	2072.38
470.055	2288.38
470.831	2488.38
471.608	2751.38
472.385	3043.38
473.161	3338.38
473.938	3649.38
474.714	4022.38
475.49	4384.38
476.266	4809.38
477.043	5202.38
477.819	5718.38
478.595	6229.38
479.371	6769.38
480.146	7348.38
480.922	8013.38
481.698	8749.38
482.473	9442.38
483.249	10260.38
484.024	11106.38
484.8	12052.38
485.575	12952.38
486.35	14037.38
487.126	15195.38
487.901	16391.38
488.676	17660.38
489.451	18986.38
490.225	20467.38
491	21867.38
491.775	23392.38
492.55	24938.38
493.324	26587.38
494.099	28214.38
494.873	29961.38
495.647	31647.38
496.422	33284.38
497.196	35014.38
497.97	36561.38
498.744	38093.38
499.518	39694.38
500.292	41012.38
501.066	42076.38
501.839	43021.38
502.613	43878.38
503.387	44670.38
504.16	45139.38
504.934	45434.38
505.707	45483.38
506.48	45269.38
507.253	44958.38
508.027	44527.38
508.8	43799.38
509.573	42946.38
510.346	42017.38
511.118	41021.38
511.891	39966.38
512.664	38547.38
513.437	37211.38
514.209	35904.38
514.982	34567.38
515.754	33277.38
516.526	31967.38
517.298	30655.38
518.071	29447.38
518.843	28359.38
519.615	27230.38
520.387	26120.38
521.159	25115.38
521.93	24065.38
522.702	23078.38
523.474	22085.38
524.245	21212.38
525.017	20310.38
525.788	19453.38
526.56	18683.38
527.331	17861.38
528.102	16975.38
528.873	16145.38
529.644	15378.38
530.415	14699.38
531.186	13981.38
531.957	13278.38
532.728	12647.38
533.498	11995.38
534.269	11339.38
535.039	10727.38
535.81	10167.38
536.58	9622.38
537.351	9122.38
538.121	8632.38
538.891	8184.38
539.661	7727.38
540.431	7257.38
541.201	6966.38
541.971	6579.38
542.741	6233.38
543.51	5890.38
544.28	5590.38
545.05	5370.38
545.819	5107.38
546.588	4865.38
547.358	4662.38
548.127	4429.38
548.896	4211.38
549.665	3981.38
550.434	3774.38
551.203	3575.38
551.972	3386.38
552.741	3239.38
553.51	3027.38
554.278	2878.38
555.047	2708.38
555.815	2576.38
556.584	2426.38
557.352	2281.38
558.121	2171.38
558.889	2073.38
559.657	1949.38
560.425	1834.38
561.193	1733.38
561.961	1655.38
562.729	1560.38
563.496	1473.38
564.264	1391.38
565.032	1305.38
565.799	1245.38
566.567	1176.38
567.334	1112.38
568.101	1052.38
568.869	993.38
569.636	935.38
570.403	902.38
571.17	829.38
571.937	787.38
572.704	743.38
573.471	705.38
574.237	663.38
575.004	627.38
575.771	586.38
576.537	555.38
577.303	521.38
578.07	507.38
578.836	470.38
579.602	446.38
580.368	422.38
581.134	406.38
581.9	384.38
582.666	368.38
583.432	352.38
584.198	326.38
584.964	313.38
585.729	299.38
586.495	274.38
587.26	262.38
588.025	248.38
588.791	238.38
589.556	224.38
590.321	213.38
591.086	201.38
591.851	194.38
592.616	183.38
593.381	173.38
594.146	164.38
594.911	161.38
595.675	154.38
596.44	149.38
597.204	142.38
597.969	131.38
598.733	128.38
599.497	121.38
600.261	114.38
601.025	109.38
601.79	104.38
602.553	101.38
603.317	99.38
604.081	94.38
604.845	91.38
605.609	86.38
606.372	86.38
607.136	79.38
607.899	82.38
608.662	73.38
609.426	73.38
610.189	67.38
610.952	66.38
611.715	63.38
612.478	61.38
613.241	63.38
614.004	59.38
614.767	53.38
615.529	56.38
616.292	49.38
617.055	47.38
617.817	50.38
618.579	47.38
619.342	46.38
620.104	41.38
620.866	42.38
621.628	41.38
622.39	40.38
623.152	36.38
623.914	35.38
624.676	35.38
625.438	30.38
626.199	34.38
626.961	33.38
627.722	32.38
628.484	32.38
629.245	31.38
630.006	30.38
630.768	29.38
631.529	28.38
632.29	26.38
633.051	26.38
633.812	28.38
634.573	23.38
635.333	26.38
636.094	23.38
636.855	22.38
637.615	24.38
638.376	18.38
639.136	21.38
639.896	20.38
640.657	20.38
641.417	17.38
642.177	18.38
642.937	21.38
643.697	18.38
644.457	21.38
645.216	17.38
645.976	15.38
646.736	18.38
647.495	18.38
648.255	17.38
649.014	17.38
649.774	14.38
650.533	14.38
651.292	16.38
652.051	12.38
652.81	13.38
653.569	13.38
654.328	12.38
655.087	14.38
655.846	12.38
656.604	14.38
657.363	11.38
658.121	10.38
658.88	12.38
659.638	12.38
660.397	11.38
661.155	12.38
661.913	9.38
662.671	10.38
663.429	11.38
664.187	12.38
664.945	12.38
665.703	9.38
666.46	11.38
667.218	10.38
667.976	13.38
668.733	9.38
669.49	10.38
670.248	7.38
671.005	10.38
671.762	8.38
672.519	10.38
673.276	11.38
674.033	8.38
674.79	8.38
675.547	10.38
676.304	13.38
677.06	8.38
677.817	7.38
678.574	10.38
679.33	6.38
680.086	5.38
680.843	7.38
681.599	9.38
682.355	9.38
683.111	9.38
683.867	8.38
684.623	9.38
685.379	12.38
686.135	8.38
686.89	7.38
687.646	8.38
688.402	9.38
689.157	8.38
689.912	9.38
690.668	6.38
691.423	8.38
692.178	6.38
692.933	8.38
693.688	8.38
694.443	7.38
695.198	8.38
695.953	6.38
696.708	6.38
697.462	9.38
698.217	6.38
698.972	9.38
699.726	9.38
700.48	10.38
701.235	9.38
701.989	8.38
702.743	8.38
703.497	7.38
704.251	8.38
705.005	6.38
705.759	6.38
706.513	9.38
707.266	10.38
708.02	8.38
708.774	6.38
709.527	8.38
710.28	7.38
711.034	5.38
711.787	9.38
712.54	6.38
713.293	9.38
714.046	7.38
714.799	10.38
715.552	4.38
716.305	6.38
717.058	10.38
717.81	6.38
718.563	8.38
719.315	7.38
720.068	8.38
720.82	9.38
721.573	7.38
722.325	7.38
723.077	9.38
723.829	11.38
724.581	7.38
725.333	8.38
726.085	7.38
726.836	9.38
727.588	10.38
728.34	10.38
729.091	7.38
729.843	10.38
730.594	8.38
731.346	9.38
732.097	8.38
732.848	11.38
733.599	10.38
734.35	11.38
735.101	10.38
735.852	9.38
736.603	9.38
737.354	9.38
738.104	10.38
738.855	9.38
739.605	9.38
740.356	9.38
741.106	10.38
741.856	11.38
742.607	8.38
743.357	9.38
744.107	11.38
744.857	11.38
745.607	14.38
746.357	8.38
747.106	13.38
747.856	12.38
748.606	11.38
749.355	12.38
750.105	11.38
750.854	12.38
751.603	12.38
752.353	11.38
753.102	11.38
753.851	11.38
754.6	9.38
755.349	11.38
756.098	13.38
756.847	12.38
757.595	11.38
758.344	12.38
759.093	11.38
759.841	11.38
760.589	13.38
761.338	13.38
762.086	11.38
762.834	11.38
763.582	14.38
764.331	13.38
765.079	15.38
765.826	15.38
766.574	11.38
767.322	12.38
768.07	13.38
768.817	13.38
769.565	13.38
770.312	15.38
771.06	14.38
771.807	13.38
772.554	14.38
773.302	14.38
774.049	17.38
774.796	15.38
775.543	17.38
776.29	16.38
777.036	13.38
777.783	13.38
778.53	15.38
779.276	16.38
780.023	14.38
780.769	16.38
781.516	17.38
782.262	14.38
783.008	17.38
783.754	15.38
784.5	18.38
785.246	15.38
785.992	17.38
786.738	15.38
787.484	14.38
788.23	17.38
788.975	16.38
789.721	14.38
790.466	13.38
791.212	15.38
791.957	15.38
792.702	14.38
793.447	14.38
794.193	13.38
794.938	13.38
795.683	15.38
796.427	11.38
797.172	15.38
797.917	11.38
798.662	14.38
799.406	12.38
800.151	13.38
800.895	12.38
801.64	10.38
802.384	12.38
803.128	12.38
803.872	12.38
804.616	12.38
805.36	11.38
806.104	11.38
806.848	10.38
807.592	9.38
808.336	9.38
809.079	10.38
809.823	11.38
810.566	8.38
811.31	10.38
812.053	9.38
812.796	10.38
813.539	10.38
814.283	11.38
815.026	11.38
815.769	8.38
816.511	7.38
817.254	7.38
817.997	6.38
818.74	9.38
819.482	8.38
820.225	8.38
820.967	8.38
821.71	8.38
822.452	6.38
823.194	7.38
823.936	9.38
824.678	7.38
825.42	9.38
826.162	9.38
826.904	10.38
827.646	10.38
828.388	6.38
829.129	8.38
829.871	8.38
830.612	6.38
831.354	6.38
832.095	7.38
832.836	7.38
833.577	4.38
834.319	7.38
835.06	7.38
835.801	7.38
836.542	6.38
837.282	4.38
838.023	8.38
838.764	4.38
839.504	8.38
840.245	4.38
840.985	6.38
841.726	6.38
842.466	4.38
843.206	7.38
843.946	4.38
844.687	5.38
845.427	5.38
846.166	6.38
846.906	5.38
847.646	6.38
848.386	4.38
849.125	5.38
849.865	5.38
850.605	7.38
851.344	5.38
852.083	6.38
852.823	2.38
853.562	7.38
854.301	6.38
855.04	3.38
855.779	3.38
856.518	4.38
857.257	3.38
857.995	3.38
858.734	4.38
859.473	5.38
860.211	4.38
860.95	6.38
861.688	1.38
862.426	5.38
863.165	2.38
863.903	3.38
864.641	3.38
865.379	1.38
866.117	4.38
866.855	6.38
867.593	4.38
868.33	3.38
869.068	2.38
869.806	1.38
870.543	2.38
871.28	2.38
872.018	2.38
872.755	1.38
873.492	3.38
874.229	4.38
874.967	2.38
875.703	1.38
876.44	2.38
877.177	1.38
877.914	1.38
878.651	3.38
879.387	3.38
880.124	2.38
880.86	3.38
881.597	0.38
882.333	3.38
883.069	1.38
883.806	3.38
884.542	1.38
885.278	3.38
886.014	2.38
886.749	1.38
887.485	4.38
888.221	1.38
888.957	3.38
889.692	1.38
890.428	3.38
891.163	2.38
891.899	1.38
892.634	2.38
893.369	3.38
894.104	3.38
894.839	2.38
895.574	2.38
896.309	4.38
897.044	1.38
897.779	2.38
898.514	0.38
899.248	3.38
899.983	1.38
900.717	1.38
901.452	0.38
902.186	1.38
902.92	1.38
903.654	2.38
904.389	4.38
905.123	-0.62
905.857	1.38
906.59	-0.62
907.324	0.38
908.058	0.38
908.792	-0.62
909.525	1.38
910.259	2.38
910.992	1.38
911.726	2.38
912.459	2.38
913.192	2.38
913.925	2.38
914.658	2.38
915.391	0.38
916.124	0.38
916.857	2.38
917.59	1.38
918.323	0.38
919.055	1.38
919.788	2.38
920.521	2.38
921.253	2.38
921.985	1.38
922.718	1.38
923.45	0.38
924.182	-1.62
924.914	2.38
925.646	0.38
926.378	-1.62
927.11	3.38
927.841	1.38
928.573	-0.62
929.305	1.38
930.036	-0.62
930.768	0.38
931.499	2.38
932.23	2.38
932.962	0.38
933.693	1.38
934.424	2.38
935.155	-0.62
935.886	3.38
936.617	1.38
937.348	-0.62
938.078	2.38
938.809	1.38
939.54	1.38
940.27	1.38
941.001	1.38
941.731	2.38
942.461	-0.62
943.191	1.38
943.922	-0.62
944.652	2.38
945.382	2.38
946.112	1.38
946.841	-0.62
947.571	1.38
948.301	2.38
949.031	-0.62
949.76	0.38
950.49	-0.62
951.219	-1.62
951.948	2.38
952.678	-0.62
953.407	3.38
954.136	2.38
954.865	0.38
955.594	0.38
956.323	-0.62
957.052	2.38
957.78	0.38
958.509	0.38
959.238	0.38
959.966	2.38
960.695	-0.62
961.423	-0.62
962.151	0.38
962.88	-2.62
963.608	2.38
964.336	-1.62
965.064	-0.62
965.792	1.38
966.52	2.38
967.247	0.38
967.975	1.38
968.703	1.38
969.43	0.38
970.158	-1.62
970.885	2.38
971.613	-0.62
972.34	0.38
973.067	0.38
973.794	0.38
974.521	1.38
975.248	2.38
975.975	1.38
976.702	1.38
977.429	-0.62
978.156	0.38
978.882	-0.62
979.609	0.38
980.335	1.38
981.062	2.38
981.788	2.38
982.514	2.38
983.24	-0.62
983.967	1.38
984.693	3.38
985.419	2.38
986.144	1.38
986.87	1.38
987.596	0.38
988.322	3.38
989.047	2.38
989.773	3.38
990.498	2.38
991.224	-1.62
991.949	-1.62
992.674	0.38
993.399	1.38
994.124	1.38
994.849	-2.62
995.574	1.38
996.299	1.38
997.024	2.38
997.749	0.38
998.473	2.38
999.198	1.38
999.922	1.38
1000.647	1.38
1001.371	3.38
1002.095	0.38
1002.82	-2.62
1003.544	-0.62
1004.268	6.38
1004.992	4.38
1005.716	7.38
1006.439	6.38
1007.163	10.38
1007.887	8.38
1008.611	0.38
1009.334	-0.62
1010.058	0.38
1010.781	1.38
1011.504	-0.62
1012.228	2.38
1012.951	-0.62
1013.674	-1.62
1014.397	0.38
1015.12	1.38
