节点500_705_QEPB04081__601__20-54-28-793.txt的数据

Date: Wed Nov 12 20:54:28 CST 2025
User: PC
Spectrometer: QEPB0408
触发模式: 0
积分时间 (秒): 1.000000E-2
Scans to average: 1
启用暗噪声校正: true
启用非线性校正: false
滑动平均宽度: 0
X轴模式: Wavelengths
Number of Pixels in Spectrum: 1044
>>>>>Begin Spectral Data<<<<<
220.843	4.62
221.644	4.62
222.444	4.62
223.244	6.62
224.045	5.62
224.845	5.62
225.645	9.62
226.445	4.62
227.245	6.62
228.045	9.62
228.845	9.62
229.645	8.62
230.444	6.62
231.244	8.62
232.043	9.62
232.843	5.62
233.642	10.62
234.442	7.62
235.241	10.62
236.04	9.62
236.839	8.62
237.638	10.62
238.437	10.62
239.236	11.62
240.035	8.62
240.833	8.62
241.632	11.62
242.43	13.62
243.229	12.62
244.027	11.62
244.826	11.62
245.624	12.62
246.422	14.62
247.22	13.62
248.018	12.62
248.816	12.62
249.614	13.62
250.412	13.62
251.21	15.62
252.007	15.62
252.805	16.62
253.602	15.62
254.4	18.62
255.197	15.62
255.994	14.62
256.791	18.62
257.589	18.62
258.386	18.62
259.183	17.62
259.979	18.62
260.776	19.62
261.573	19.62
262.37	19.62
263.166	19.62
263.963	23.62
264.759	22.62
265.556	26.62
266.352	24.62
267.148	26.62
267.944	24.62
268.74	27.62
269.536	26.62
270.332	26.62
271.128	29.62
271.924	31.62
272.719	29.62
273.515	28.62
274.311	28.62
275.106	34.62
275.901	32.62
276.697	33.62
277.492	33.62
278.287	30.62
279.082	29.62
279.877	33.62
280.672	31.62
281.467	32.62
282.262	32.62
283.056	34.62
283.851	32.62
284.646	31.62
285.44	29.62
286.234	29.62
287.029	34.62
287.823	30.62
288.617	30.62
289.411	33.62
290.205	30.62
290.999	31.62
291.793	29.62
292.587	31.62
293.381	27.62
294.174	30.62
294.968	30.62
295.761	26.62
296.555	25.62
297.348	25.62
298.141	27.62
298.935	30.62
299.728	26.62
300.521	28.62
301.314	24.62
302.107	23.62
302.899	25.62
303.692	24.62
304.485	25.62
305.277	24.62
306.07	21.62
306.862	19.62
307.655	24.62
308.447	22.62
309.239	20.62
310.031	23.62
310.823	18.62
311.615	19.62
312.407	15.62
313.199	18.62
313.991	15.62
314.783	13.62
315.574	17.62
316.366	17.62
317.157	15.62
317.949	17.62
318.74	14.62
319.531	15.62
320.322	14.62
321.113	14.62
321.904	12.62
322.695	13.62
323.486	13.62
324.277	14.62
325.068	13.62
325.858	11.62
326.649	13.62
327.439	11.62
328.23	15.62
329.02	12.62
329.81	10.62
330.6	14.62
331.391	10.62
332.181	11.62
332.971	9.62
333.76	11.62
334.55	15.62
335.34	9.62
336.13	15.62
336.919	13.62
337.709	13.62
338.498	11.62
339.287	14.62
340.077	9.62
340.866	11.62
341.655	12.62
342.444	13.62
343.233	10.62
344.022	13.62
344.811	12.62
345.6	9.62
346.388	10.62
347.177	13.62
347.965	10.62
348.754	11.62
349.542	11.62
350.33	10.62
351.119	9.62
351.907	11.62
352.695	10.62
353.483	11.62
354.271	10.62
355.059	10.62
355.846	9.62
356.634	9.62
357.422	9.62
358.209	11.62
358.997	12.62
359.784	10.62
360.571	9.62
361.359	8.62
362.146	10.62
362.933	10.62
363.72	8.62
364.507	11.62
365.294	9.62
366.081	12.62
366.867	9.62
367.654	7.62
368.44	10.62
369.227	8.62
370.013	8.62
370.8	10.62
371.586	12.62
372.372	10.62
373.158	7.62
373.944	8.62
374.73	8.62
375.516	9.62
376.302	10.62
377.088	9.62
377.873	8.62
378.659	9.62
379.445	8.62
380.23	9.62
381.015	10.62
381.801	11.62
382.586	11.62
383.371	10.62
384.156	8.62
384.941	12.62
385.726	9.62
386.511	11.62
387.296	14.62
388.08	9.62
388.865	11.62
389.649	10.62
390.434	10.62
391.218	9.62
392.003	11.62
392.787	11.62
393.571	10.62
394.355	11.62
395.139	10.62
395.923	12.62
396.707	14.62
397.491	12.62
398.274	13.62
399.058	12.62
399.842	11.62
400.625	14.62
401.408	12.62
402.192	13.62
402.975	15.62
403.758	15.62
404.541	12.62
405.324	15.62
406.107	13.62
406.89	15.62
407.673	15.62
408.456	13.62
409.238	14.62
410.021	15.62
410.803	17.62
411.586	17.62
412.368	17.62
413.151	18.62
413.933	14.62
414.715	19.62
415.497	17.62
416.279	18.62
417.061	17.62
417.843	18.62
418.624	17.62
419.406	19.62
420.188	20.62
420.969	19.62
421.751	20.62
422.532	21.62
423.313	19.62
424.095	25.62
424.876	23.62
425.657	24.62
426.438	27.62
427.219	28.62
428	27.62
428.78	28.62
429.561	27.62
430.342	30.62
431.122	31.62
431.903	31.62
432.683	33.62
433.464	37.62
434.244	35.62
435.024	40.62
435.804	41.62
436.584	42.62
437.364	43.62
438.144	47.62
438.924	53.62
439.704	56.62
440.483	60.62
441.263	57.62
442.042	69.62
442.822	73.62
443.601	75.62
444.38	83.62
445.16	93.62
445.939	96.62
446.718	111.62
447.497	121.62
448.276	128.62
449.054	142.62
449.833	159.62
450.612	172.62
451.391	191.62
452.169	211.62
452.948	225.62
453.726	257.62
454.504	286.62
455.282	316.62
456.061	352.62
456.839	394.62
457.617	441.62
458.395	486.62
459.172	544.62
459.95	614.62
460.728	670.62
461.506	747.62
462.283	829.62
463.061	920.62
463.838	1027.62
464.615	1126.62
465.393	1247.62
466.17	1387.62
466.947	1536.62
467.724	1688.62
468.501	1860.62
469.278	2055.62
470.055	2264.62
470.831	2484.62
471.608	2752.62
472.385	3016.62
473.161	3298.62
473.938	3613.62
474.714	3945.62
475.49	4320.62
476.266	4707.62
477.043	5133.62
477.819	5566.62
478.595	6050.62
479.371	6550.62
480.146	7139.62
480.922	7752.62
481.698	8383.62
482.473	9117.62
483.249	9869.62
484.024	10607.62
484.8	11476.62
485.575	12341.62
486.35	13346.62
487.126	14352.62
487.901	15507.62
488.676	16610.62
489.451	17882.62
490.225	19216.62
491	20546.62
491.775	21960.62
492.55	23399.62
493.324	24920.62
494.099	26450.62
494.873	27966.62
495.647	29538.62
496.422	31129.62
497.196	32769.62
497.97	34202.62
498.744	35758.62
499.518	37235.62
500.292	38551.62
501.066	39691.62
501.839	40705.62
502.613	41590.62
503.387	42377.62
504.16	43033.62
504.934	43367.62
505.707	43708.62
506.48	43614.62
507.253	43402.62
508.027	43161.62
508.8	42636.62
509.573	41826.62
510.346	41190.62
511.118	40379.62
511.891	39358.62
512.664	38105.62
513.437	36901.62
514.209	35674.62
514.982	34381.62
515.754	33113.62
516.526	31865.62
517.298	30753.62
518.071	29513.62
518.843	28381.62
519.615	27232.62
520.387	26248.62
521.159	25156.62
521.93	24144.62
522.702	23133.62
523.474	22261.62
524.245	21365.62
525.017	20454.62
525.788	19580.62
526.56	18780.62
527.331	18036.62
528.102	17143.62
528.873	16336.62
529.644	15539.62
530.415	14866.62
531.186	14182.62
531.957	13434.62
532.728	12839.62
533.498	12168.62
534.269	11561.62
535.039	10960.62
535.81	10398.62
536.58	9800.62
537.351	9327.62
538.121	8824.62
538.891	8377.62
539.661	7895.62
540.431	7486.62
541.201	7115.62
541.971	6748.62
542.741	6396.62
543.51	6026.62
544.28	5750.62
545.05	5475.62
545.819	5232.62
546.588	5010.62
547.358	4739.62
548.127	4497.62
548.896	4295.62
549.665	4087.62
550.434	3857.62
551.203	3660.62
551.972	3521.62
552.741	3309.62
553.51	3124.62
554.278	2954.62
555.047	2778.62
555.815	2651.62
556.584	2494.62
557.352	2378.62
558.121	2233.62
558.889	2115.62
559.657	1995.62
560.425	1902.62
561.193	1809.62
561.961	1699.62
562.729	1608.62
563.496	1519.62
564.264	1439.62
565.032	1348.62
565.799	1276.62
566.567	1208.62
567.334	1150.62
568.101	1087.62
568.869	1030.62
569.636	971.62
570.403	909.62
571.17	865.62
571.937	817.62
572.704	769.62
573.471	733.62
574.237	691.62
575.004	638.62
575.771	609.62
576.537	572.62
577.303	544.62
578.07	510.62
578.836	487.62
579.602	461.62
580.368	436.62
581.134	417.62
581.9	396.62
582.666	372.62
583.432	355.62
584.198	342.62
584.964	320.62
585.729	310.62
586.495	279.62
587.26	274.62
588.025	258.62
588.791	245.62
589.556	229.62
590.321	212.62
591.086	210.62
591.851	190.62
592.616	191.62
593.381	177.62
594.146	172.62
594.911	158.62
595.675	164.62
596.44	148.62
597.204	143.62
597.969	133.62
598.733	125.62
599.497	124.62
600.261	118.62
601.025	114.62
601.79	112.62
602.553	106.62
603.317	101.62
604.081	99.62
604.845	91.62
605.609	92.62
606.372	83.62
607.136	82.62
607.899	81.62
608.662	75.62
609.426	70.62
610.189	69.62
610.952	69.62
611.715	66.62
612.478	62.62
613.241	60.62
614.004	59.62
614.767	56.62
615.529	55.62
616.292	52.62
617.055	53.62
617.817	53.62
618.579	46.62
619.342	43.62
620.104	43.62
620.866	42.62
621.628	41.62
622.39	40.62
623.152	38.62
623.914	39.62
624.676	37.62
625.438	36.62
626.199	30.62
626.961	34.62
627.722	34.62
628.484	30.62
629.245	30.62
630.006	28.62
630.768	31.62
631.529	27.62
632.29	28.62
633.051	27.62
633.812	26.62
634.573	27.62
635.333	24.62
636.094	20.62
636.855	24.62
637.615	23.62
638.376	20.62
639.136	21.62
639.896	22.62
640.657	18.62
641.417	18.62
642.177	19.62
642.937	17.62
643.697	19.62
644.457	17.62
645.216	18.62
645.976	16.62
646.736	16.62
647.495	16.62
648.255	14.62
649.014	16.62
649.774	17.62
650.533	15.62
651.292	17.62
652.051	13.62
652.81	12.62
653.569	13.62
654.328	15.62
655.087	13.62
655.846	15.62
656.604	15.62
657.363	9.62
658.121	17.62
658.88	11.62
659.638	13.62
660.397	13.62
661.155	11.62
661.913	10.62
662.671	10.62
663.429	14.62
664.187	9.62
664.945	11.62
665.703	11.62
666.46	12.62
667.218	10.62
667.976	9.62
668.733	9.62
669.49	10.62
670.248	9.62
671.005	10.62
671.762	11.62
672.519	8.62
673.276	11.62
674.033	10.62
674.79	9.62
675.547	7.62
676.304	7.62
677.06	8.62
677.817	9.62
678.574	8.62
679.33	8.62
680.086	9.62
680.843	8.62
681.599	9.62
682.355	8.62
683.111	9.62
683.867	9.62
684.623	7.62
685.379	7.62
686.135	9.62
686.89	9.62
687.646	7.62
688.402	8.62
689.157	8.62
689.912	5.62
690.668	7.62
691.423	9.62
692.178	8.62
692.933	6.62
693.688	8.62
694.443	8.62
695.198	7.62
695.953	9.62
696.708	8.62
697.462	7.62
698.217	9.62
698.972	7.62
699.726	5.62
700.48	8.62
701.235	8.62
701.989	7.62
702.743	8.62
703.497	8.62
704.251	9.62
705.005	8.62
705.759	7.62
706.513	9.62
707.266	9.62
708.02	7.62
708.774	6.62
709.527	5.62
710.28	8.62
711.034	7.62
711.787	7.62
712.54	8.62
713.293	7.62
714.046	7.62
714.799	8.62
715.552	9.62
716.305	6.62
717.058	6.62
717.81	6.62
718.563	8.62
719.315	11.62
720.068	8.62
720.82	8.62
721.573	7.62
722.325	9.62
723.077	11.62
723.829	5.62
724.581	8.62
725.333	8.62
726.085	10.62
726.836	7.62
727.588	5.62
728.34	9.62
729.091	8.62
729.843	9.62
730.594	8.62
731.346	11.62
732.097	9.62
732.848	11.62
733.599	9.62
734.35	9.62
735.101	9.62
735.852	9.62
736.603	8.62
737.354	9.62
738.104	8.62
738.855	9.62
739.605	9.62
740.356	11.62
741.106	11.62
741.856	8.62
742.607	9.62
743.357	9.62
744.107	12.62
744.857	10.62
745.607	9.62
746.357	9.62
747.106	9.62
747.856	7.62
748.606	8.62
749.355	11.62
750.105	11.62
750.854	11.62
751.603	9.62
752.353	7.62
753.102	11.62
753.851	10.62
754.6	10.62
755.349	11.62
756.098	12.62
756.847	10.62
757.595	9.62
758.344	12.62
759.093	10.62
759.841	12.62
760.589	12.62
761.338	13.62
762.086	10.62
762.834	13.62
763.582	11.62
764.331	11.62
765.079	13.62
765.826	9.62
766.574	10.62
767.322	14.62
768.07	10.62
768.817	14.62
769.565	13.62
770.312	12.62
771.06	16.62
771.807	10.62
772.554	12.62
773.302	12.62
774.049	14.62
774.796	13.62
775.543	14.62
776.29	16.62
777.036	13.62
777.783	13.62
778.53	16.62
779.276	13.62
780.023	16.62
780.769	14.62
781.516	12.62
782.262	12.62
783.008	14.62
783.754	16.62
784.5	14.62
785.246	14.62
785.992	13.62
786.738	18.62
787.484	14.62
788.23	16.62
788.975	13.62
789.721	13.62
790.466	15.62
791.212	14.62
791.957	14.62
792.702	14.62
793.447	15.62
794.193	14.62
794.938	11.62
795.683	12.62
796.427	15.62
797.172	12.62
797.917	13.62
798.662	10.62
799.406	14.62
800.151	13.62
800.895	11.62
801.64	9.62
802.384	12.62
803.128	8.62
803.872	11.62
804.616	13.62
805.36	12.62
806.104	13.62
806.848	9.62
807.592	10.62
808.336	9.62
809.079	11.62
809.823	9.62
810.566	8.62
811.31	11.62
812.053	10.62
812.796	8.62
813.539	10.62
814.283	9.62
815.026	8.62
815.769	9.62
816.511	7.62
817.254	8.62
817.997	9.62
818.74	9.62
819.482	6.62
820.225	6.62
820.967	8.62
821.71	8.62
822.452	9.62
823.194	8.62
823.936	8.62
824.678	6.62
825.42	7.62
826.162	8.62
826.904	8.62
827.646	7.62
828.388	9.62
829.129	8.62
829.871	7.62
830.612	3.62
831.354	7.62
832.095	5.62
832.836	7.62
833.577	5.62
834.319	8.62
835.06	5.62
835.801	7.62
836.542	5.62
837.282	4.62
838.023	5.62
838.764	8.62
839.504	3.62
840.245	5.62
840.985	8.62
841.726	4.62
842.466	8.62
843.206	5.62
843.946	4.62
844.687	6.62
845.427	6.62
846.166	4.62
846.906	6.62
847.646	5.62
848.386	7.62
849.125	4.62
849.865	3.62
850.605	5.62
851.344	5.62
852.083	5.62
852.823	5.62
853.562	5.62
854.301	6.62
855.04	5.62
855.779	4.62
856.518	3.62
857.257	5.62
857.995	5.62
858.734	2.62
859.473	4.62
860.211	3.62
860.95	3.62
861.688	3.62
862.426	3.62
863.165	4.62
863.903	2.62
864.641	2.62
865.379	2.62
866.117	5.62
866.855	4.62
867.593	1.62
868.33	5.62
869.068	2.62
869.806	2.62
870.543	2.62
871.28	1.62
872.018	4.62
872.755	-0.38
873.492	3.62
874.229	3.62
874.967	2.62
875.703	3.62
876.44	3.62
877.177	4.62
877.914	0.62
878.651	3.62
879.387	3.62
880.124	1.62
880.86	2.62
881.597	2.62
882.333	1.62
883.069	3.62
883.806	4.62
884.542	1.62
885.278	3.62
886.014	2.62
886.749	1.62
887.485	3.62
888.221	1.62
888.957	2.62
889.692	1.62
890.428	3.62
891.163	6.62
891.899	0.62
892.634	-0.38
893.369	2.62
894.104	3.62
894.839	1.62
895.574	1.62
896.309	3.62
897.044	2.62
897.779	4.62
898.514	1.62
899.248	0.62
899.983	2.62
900.717	1.62
901.452	0.62
902.186	0.62
902.92	2.62
903.654	1.62
904.389	1.62
905.123	3.62
905.857	1.62
906.59	2.62
907.324	1.62
908.058	1.62
908.792	3.62
909.525	0.62
910.259	1.62
910.992	3.62
911.726	1.62
912.459	5.62
913.192	0.62
913.925	3.62
914.658	1.62
915.391	0.62
916.124	0.62
916.857	1.62
917.59	2.62
918.323	3.62
919.055	0.62
919.788	1.62
920.521	1.62
921.253	1.62
921.985	0.62
922.718	2.62
923.45	0.62
924.182	2.62
924.914	1.62
925.646	1.62
926.378	3.62
927.11	1.62
927.841	1.62
928.573	0.62
929.305	1.62
930.036	1.62
930.768	5.62
931.499	3.62
932.23	-0.38
932.962	1.62
933.693	0.62
934.424	-0.38
935.155	1.62
935.886	-1.38
936.617	0.62
937.348	0.62
938.078	1.62
938.809	1.62
939.54	-0.38
940.27	0.62
941.001	0.62
941.731	0.62
942.461	-0.38
943.191	-1.38
943.922	1.62
944.652	2.62
945.382	1.62
946.112	1.62
946.841	1.62
947.571	0.62
948.301	1.62
949.031	-0.38
949.76	-0.38
950.49	0.62
951.219	1.62
951.948	0.62
952.678	1.62
953.407	-0.38
954.136	1.62
954.865	2.62
955.594	1.62
956.323	-1.38
957.052	-0.38
957.78	-1.38
958.509	0.62
959.238	1.62
959.966	2.62
960.695	1.62
961.423	2.62
962.151	0.62
962.88	0.62
963.608	4.62
964.336	2.62
965.064	1.62
965.792	2.62
966.52	2.62
967.247	0.62
967.975	3.62
968.703	-1.38
969.43	1.62
970.158	1.62
970.885	1.62
971.613	-0.38
972.34	-0.38
973.067	0.62
973.794	-0.38
974.521	0.62
975.248	2.62
975.975	1.62
976.702	1.62
977.429	1.62
978.156	1.62
978.882	1.62
979.609	1.62
980.335	2.62
981.062	0.62
981.788	2.62
982.514	0.62
983.24	2.62
983.967	1.62
984.693	0.62
985.419	2.62
986.144	-0.38
986.87	-0.38
987.596	1.62
988.322	1.62
989.047	0.62
989.773	3.62
990.498	0.62
991.224	-1.38
991.949	1.62
992.674	-0.38
993.399	-0.38
994.124	2.62
994.849	1.62
995.574	0.62
996.299	0.62
997.024	1.62
997.749	2.62
998.473	0.62
999.198	0.62
999.922	-0.38
1000.647	0.62
1001.371	5.62
1002.095	-0.38
1002.82	-1.38
1003.544	-1.38
1004.268	7.62
1004.992	3.62
1005.716	6.62
1006.439	7.62
1007.163	6.62
1007.887	3.62
1008.611	2.62
1009.334	2.62
1010.058	0.62
1010.781	0.62
1011.504	1.62
1012.228	1.62
1012.951	0.62
1013.674	-0.38
1014.397	-1.38
1015.12	-1.38
