节点500_705_QEPB04081__215__20-48-58-495.txt的数据

Date: Wed Nov 12 20:48:58 CST 2025
User: PC
Spectrometer: QEPB0408
触发模式: 0
积分时间 (秒): 1.000000E-2
Scans to average: 1
启用暗噪声校正: true
启用非线性校正: false
滑动平均宽度: 0
X轴模式: Wavelengths
Number of Pixels in Spectrum: 1044
>>>>>Begin Spectral Data<<<<<
220.843	4
221.644	10
222.444	6
223.244	7
224.045	8
224.845	8
225.645	8
226.445	3
227.245	7
228.045	7
228.845	7
229.645	9
230.444	7
231.244	8
232.043	10
232.843	10
233.642	9
234.442	8
235.241	9
236.04	10
236.839	9
237.638	14
238.437	12
239.236	11
240.035	10
240.833	10
241.632	13
242.43	15
243.229	13
244.027	11
244.826	15
245.624	14
246.422	16
247.22	13
248.018	15
248.816	18
249.614	15
250.412	15
251.21	17
252.007	21
252.805	19
253.602	15
254.4	21
255.197	18
255.994	21
256.791	21
257.589	24
258.386	23
259.183	24
259.979	24
260.776	24
261.573	27
262.37	26
263.166	26
263.963	26
264.759	27
265.556	29
266.352	30
267.148	31
267.944	31
268.74	29
269.536	30
270.332	29
271.128	32
271.924	35
272.719	31
273.515	33
274.311	34
275.106	35
275.901	38
276.697	36
277.492	34
278.287	37
279.082	35
279.877	36
280.672	36
281.467	32
282.262	36
283.056	35
283.851	34
284.646	38
285.44	31
286.234	36
287.029	33
287.823	34
288.617	33
289.411	36
290.205	34
290.999	34
291.793	34
292.587	34
293.381	33
294.174	32
294.968	27
295.761	27
296.555	27
297.348	29
298.141	28
298.935	29
299.728	26
300.521	26
301.314	26
302.107	27
302.899	22
303.692	23
304.485	22
305.277	22
306.07	22
306.862	25
307.655	23
308.447	21
309.239	19
310.031	21
310.823	20
311.615	20
312.407	20
313.199	17
313.991	16
314.783	17
315.574	16
316.366	14
317.157	15
317.949	15
318.74	13
319.531	18
320.322	15
321.113	14
321.904	14
322.695	13
323.486	15
324.277	14
325.068	13
325.858	13
326.649	14
327.439	13
328.23	12
329.02	12
329.81	11
330.6	11
331.391	13
332.181	13
332.971	13
333.76	10
334.55	12
335.34	11
336.13	12
336.919	13
337.709	12
338.498	13
339.287	10
340.077	11
340.866	12
341.655	11
342.444	9
343.233	13
344.022	11
344.811	13
345.6	8
346.388	13
347.177	11
347.965	11
348.754	11
349.542	11
350.33	9
351.119	13
351.907	13
352.695	11
353.483	10
354.271	11
355.059	14
355.846	11
356.634	11
357.422	11
358.209	9
358.997	9
359.784	11
360.571	10
361.359	10
362.146	12
362.933	10
363.72	9
364.507	6
365.294	10
366.081	11
366.867	10
367.654	11
368.44	10
369.227	13
370.013	11
370.8	13
371.586	10
372.372	9
373.158	9
373.944	9
374.73	13
375.516	11
376.302	9
377.088	12
377.873	11
378.659	10
379.445	11
380.23	9
381.015	10
381.801	8
382.586	10
383.371	11
384.156	13
384.941	13
385.726	11
386.511	10
387.296	11
388.08	13
388.865	8
389.649	11
390.434	10
391.218	13
392.003	13
392.787	12
393.571	14
394.355	12
395.139	12
395.923	11
396.707	13
397.491	13
398.274	13
399.058	16
399.842	14
400.625	15
401.408	14
402.192	11
402.975	15
403.758	17
404.541	15
405.324	15
406.107	15
406.89	16
407.673	15
408.456	19
409.238	17
410.021	16
410.803	17
411.586	19
412.368	15
413.151	19
413.933	17
414.715	19
415.497	17
416.279	18
417.061	19
417.843	21
418.624	21
419.406	19
420.188	20
420.969	22
421.751	23
422.532	23
423.313	24
424.095	21
424.876	26
425.657	25
426.438	25
427.219	27
428	27
428.78	27
429.561	30
430.342	31
431.122	32
431.903	32
432.683	34
433.464	37
434.244	35
435.024	41
435.804	39
436.584	42
437.364	45
438.144	45
438.924	50
439.704	52
440.483	54
441.263	57
442.042	63
442.822	67
443.601	74
444.38	79
445.16	88
445.939	93
446.718	102
447.497	109
448.276	119
449.054	130
449.833	143
450.612	157
451.391	174
452.169	189
452.948	211
453.726	231
454.504	257
455.282	289
456.061	317
456.839	356
457.617	398
458.395	453
459.172	497
459.95	555
460.728	618
461.506	682
462.283	777
463.061	857
463.838	963
464.615	1073
465.393	1195
466.17	1319
466.947	1489
467.724	1654
468.501	1835
469.278	2028
470.055	2250
470.831	2485
471.608	2745
472.385	3022
473.161	3362
473.938	3704
474.714	4066
475.49	4463
476.266	4925
477.043	5413
477.819	5909
478.595	6481
479.371	7076
480.146	7728
480.922	8450
481.698	9269
482.473	10148
483.249	11053
484.024	12007
484.8	13084
485.575	14181
486.35	15400
487.126	16699
487.901	18107
488.676	19549
489.451	21128
490.225	22750
491	24386
491.775	26140
492.55	28046
493.324	29852
494.099	31618
494.873	33585
495.647	35452
496.422	37298
497.196	39174
497.97	40804
498.744	42358
499.518	43934
500.292	45234
501.066	46196
501.839	47078
502.613	47827
503.387	48274
504.16	48587
504.934	48716
505.707	48282
506.48	47874
507.253	47198
508.027	46300
508.8	45240
509.573	44079
510.346	42851
511.118	41673
511.891	40345
512.664	38689
513.437	37164
514.209	35802
514.982	34379
515.754	32882
516.526	31510
517.298	30277
518.071	29019
518.843	27768
519.615	26702
520.387	25769
521.159	24676
521.93	23613
522.702	22610
523.474	21663
524.245	20691
525.017	19752
525.788	18937
526.56	18147
527.331	17301
528.102	16415
528.873	15582
529.644	14831
530.415	14110
531.186	13399
531.957	12688
532.728	12007
533.498	11354
534.269	10818
535.039	10197
535.81	9597
536.58	9091
537.351	8645
538.121	8199
538.891	7732
539.661	7307
540.431	6882
541.201	6583
541.971	6203
542.741	5885
543.51	5609
544.28	5306
545.05	5071
545.819	4821
546.588	4601
547.358	4414
548.127	4165
548.896	3927
549.665	3744
550.434	3531
551.203	3374
551.972	3191
552.741	3014
553.51	2840
554.278	2677
555.047	2550
555.815	2403
556.584	2280
557.352	2123
558.121	2028
558.889	1910
559.657	1795
560.425	1710
561.193	1609
561.961	1525
562.729	1437
563.496	1353
564.264	1283
565.032	1219
565.799	1160
566.567	1094
567.334	1035
568.101	968
568.869	919
569.636	867
570.403	816
571.17	775
571.937	731
572.704	687
573.471	660
574.237	622
575.004	580
575.771	544
576.537	515
577.303	502
578.07	467
578.836	435
579.602	413
580.368	387
581.134	370
581.9	358
582.666	331
583.432	321
584.198	308
584.964	293
585.729	267
586.495	259
587.26	246
588.025	231
588.791	224
589.556	207
590.321	199
591.086	187
591.851	179
592.616	174
593.381	162
594.146	155
594.911	155
595.675	145
596.44	137
597.204	132
597.969	125
598.733	117
599.497	111
600.261	110
601.025	108
601.79	103
602.553	95
603.317	97
604.081	91
604.845	81
605.609	81
606.372	78
607.136	75
607.899	70
608.662	67
609.426	71
610.189	65
610.952	60
611.715	59
612.478	55
613.241	54
614.004	53
614.767	55
615.529	53
616.292	46
617.055	48
617.817	46
618.579	42
619.342	44
620.104	42
620.866	38
621.628	41
622.39	38
623.152	37
623.914	37
624.676	34
625.438	34
626.199	31
626.961	31
627.722	31
628.484	27
629.245	29
630.006	27
630.768	29
631.529	27
632.29	26
633.051	24
633.812	23
634.573	23
635.333	24
636.094	24
636.855	22
637.615	23
638.376	21
639.136	21
639.896	20
640.657	17
641.417	16
642.177	20
642.937	15
643.697	20
644.457	15
645.216	18
645.976	18
646.736	17
647.495	17
648.255	19
649.014	16
649.774	16
650.533	14
651.292	16
652.051	13
652.81	12
653.569	14
654.328	13
655.087	12
655.846	15
656.604	13
657.363	11
658.121	13
658.88	11
659.638	13
660.397	12
661.155	12
661.913	11
662.671	11
663.429	11
664.187	13
664.945	11
665.703	8
666.46	10
667.218	12
667.976	12
668.733	12
669.49	9
670.248	8
671.005	10
671.762	8
672.519	11
673.276	11
674.033	10
674.79	11
675.547	10
676.304	10
677.06	10
677.817	7
678.574	9
679.33	7
680.086	11
680.843	8
681.599	8
682.355	6
683.111	8
683.867	10
684.623	8
685.379	9
686.135	8
686.89	8
687.646	6
688.402	8
689.157	10
689.912	7
690.668	6
691.423	7
692.178	7
692.933	6
693.688	8
694.443	9
695.198	7
695.953	8
696.708	6
697.462	8
698.217	9
698.972	8
699.726	7
700.48	9
701.235	10
701.989	7
702.743	6
703.497	7
704.251	9
705.005	9
705.759	6
706.513	8
707.266	9
708.02	7
708.774	9
709.527	5
710.28	8
711.034	8
711.787	8
712.54	6
713.293	10
714.046	7
714.799	10
715.552	7
716.305	5
717.058	8
717.81	10
718.563	8
719.315	9
720.068	8
720.82	10
721.573	10
722.325	5
723.077	9
723.829	11
724.581	8
725.333	11
726.085	8
726.836	11
727.588	8
728.34	9
729.091	9
729.843	11
730.594	6
731.346	10
732.097	12
732.848	9
733.599	9
734.35	9
735.101	6
735.852	12
736.603	8
737.354	9
738.104	10
738.855	9
739.605	11
740.356	9
741.106	11
741.856	11
742.607	12
743.357	10
744.107	9
744.857	13
745.607	11
746.357	9
747.106	13
747.856	11
748.606	12
749.355	9
750.105	13
750.854	13
751.603	13
752.353	14
753.102	12
753.851	14
754.6	10
755.349	15
756.098	10
756.847	13
757.595	13
758.344	11
759.093	12
759.841	12
760.589	13
761.338	13
762.086	15
762.834	12
763.582	12
764.331	14
765.079	17
765.826	12
766.574	15
767.322	14
768.07	15
768.817	15
769.565	15
770.312	13
771.06	15
771.807	15
772.554	13
773.302	17
774.049	17
774.796	16
775.543	16
776.29	16
777.036	18
777.783	17
778.53	17
779.276	15
780.023	16
780.769	16
781.516	18
782.262	18
783.008	15
783.754	16
784.5	15
785.246	13
785.992	17
786.738	17
787.484	16
788.23	15
788.975	15
789.721	14
790.466	15
791.212	15
791.957	15
792.702	13
793.447	14
794.193	13
794.938	12
795.683	15
796.427	13
797.172	16
797.917	13
798.662	14
799.406	12
800.151	14
800.895	9
801.64	12
802.384	10
803.128	11
803.872	10
804.616	9
805.36	11
806.104	11
806.848	10
807.592	9
808.336	12
809.079	9
809.823	11
810.566	13
811.31	10
812.053	7
812.796	9
813.539	11
814.283	9
815.026	9
815.769	9
816.511	9
817.254	9
817.997	10
818.74	6
819.482	9
820.225	8
820.967	8
821.71	9
822.452	8
823.194	12
823.936	7
824.678	6
825.42	7
826.162	8
826.904	8
827.646	5
828.388	7
829.129	8
829.871	6
830.612	8
831.354	6
832.095	6
832.836	5
833.577	7
834.319	5
835.06	7
835.801	9
836.542	4
837.282	7
838.023	5
838.764	5
839.504	7
840.245	7
840.985	7
841.726	6
842.466	7
843.206	6
843.946	4
844.687	7
845.427	2
846.166	6
846.906	8
847.646	6
848.386	4
849.125	3
849.865	6
850.605	5
851.344	5
852.083	6
852.823	5
853.562	5
854.301	6
855.04	6
855.779	3
856.518	3
857.257	4
857.995	2
858.734	5
859.473	4
860.211	4
860.95	2
861.688	5
862.426	2
863.165	3
863.903	4
864.641	2
865.379	2
866.117	3
866.855	2
867.593	3
868.33	1
869.068	3
869.806	1
870.543	3
871.28	3
872.018	3
872.755	2
873.492	2
874.229	4
874.967	3
875.703	3
876.44	1
877.177	1
877.914	2
878.651	2
879.387	-1
880.124	1
880.86	0
881.597	2
882.333	0
883.069	0
883.806	3
884.542	1
885.278	4
886.014	3
886.749	1
887.485	4
888.221	2
888.957	2
889.692	0
890.428	-1
891.163	0
891.899	3
892.634	2
893.369	1
894.104	3
894.839	2
895.574	2
896.309	2
897.044	1
897.779	1
898.514	2
899.248	1
899.983	1
900.717	1
901.452	1
902.186	2
902.92	0
903.654	1
904.389	1
905.123	2
905.857	1
906.59	1
907.324	-1
908.058	1
908.792	0
909.525	2
910.259	1
910.992	2
911.726	1
912.459	1
913.192	2
913.925	2
914.658	0
915.391	3
916.124	1
916.857	2
917.59	2
918.323	0
919.055	2
919.788	0
920.521	2
921.253	0
921.985	3
922.718	0
923.45	0
924.182	2
924.914	-1
925.646	1
926.378	0
927.11	1
927.841	1
928.573	0
929.305	0
930.036	1
930.768	-1
931.499	1
932.23	1
932.962	2
933.693	0
934.424	1
935.155	-1
935.886	-1
936.617	-2
937.348	1
938.078	-1
938.809	0
939.54	2
940.27	-1
941.001	-1
941.731	-1
942.461	0
943.191	2
943.922	2
944.652	0
945.382	0
946.112	1
946.841	2
947.571	1
948.301	1
949.031	-1
949.76	1
950.49	1
951.219	0
951.948	1
952.678	1
953.407	1
954.136	0
954.865	2
955.594	2
956.323	-1
957.052	2
957.78	1
958.509	1
959.238	2
959.966	1
960.695	2
961.423	0
962.151	3
962.88	0
963.608	1
964.336	0
965.064	-2
965.792	0
966.52	0
967.247	2
967.975	0
968.703	2
969.43	1
970.158	1
970.885	1
971.613	-3
972.34	-1
973.067	2
973.794	0
974.521	0
975.248	-2
975.975	1
976.702	-1
977.429	2
978.156	2
978.882	-2
979.609	2
980.335	-2
981.062	2
981.788	0
982.514	1
983.24	1
983.967	1
984.693	0
985.419	-1
986.144	0
986.87	0
987.596	1
988.322	1
989.047	-1
989.773	1
990.498	0
991.224	0
991.949	0
992.674	1
993.399	0
994.124	2
994.849	1
995.574	0
996.299	-1
997.024	1
997.749	1
998.473	1
999.198	-3
999.922	2
1000.647	0
1001.371	3
1002.095	-1
1002.82	-1
1003.544	-1
1004.268	7
1004.992	4
1005.716	1
1006.439	3
1007.163	6
1007.887	6
1008.611	1
1009.334	1
1010.058	-1
1010.781	0
1011.504	-1
1012.228	0
1012.951	2
1013.674	0
1014.397	-1
1015.12	-1
