节点500_705_QEPB04081__156__20-48-27-072.txt的数据

Date: Wed Nov 12 20:48:27 CST 2025
User: PC
Spectrometer: QEPB0408
触发模式: 0
积分时间 (秒): 1.000000E-2
Scans to average: 1
启用暗噪声校正: true
启用非线性校正: false
滑动平均宽度: 0
X轴模式: Wavelengths
Number of Pixels in Spectrum: 1044
>>>>>Begin Spectral Data<<<<<
220.843	3.88
221.644	4.88
222.444	5.88
223.244	7.88
224.045	3.88
224.845	4.88
225.645	4.88
226.445	6.88
227.245	7.88
228.045	8.88
228.845	9.88
229.645	7.88
230.444	7.88
231.244	6.88
232.043	9.88
232.843	8.88
233.642	9.88
234.442	12.88
235.241	9.88
236.04	9.88
236.839	10.88
237.638	8.88
238.437	13.88
239.236	10.88
240.035	13.88
240.833	13.88
241.632	10.88
242.43	14.88
243.229	12.88
244.027	13.88
244.826	12.88
245.624	13.88
246.422	13.88
247.22	13.88
248.018	14.88
248.816	14.88
249.614	15.88
250.412	16.88
251.21	18.88
252.007	19.88
252.805	17.88
253.602	18.88
254.4	16.88
255.197	18.88
255.994	17.88
256.791	19.88
257.589	20.88
258.386	21.88
259.183	24.88
259.979	24.88
260.776	25.88
261.573	23.88
262.37	21.88
263.166	24.88
263.963	24.88
264.759	29.88
265.556	26.88
266.352	25.88
267.148	30.88
267.944	29.88
268.74	31.88
269.536	33.88
270.332	31.88
271.128	32.88
271.924	31.88
272.719	34.88
273.515	30.88
274.311	32.88
275.106	35.88
275.901	33.88
276.697	32.88
277.492	33.88
278.287	35.88
279.082	34.88
279.877	33.88
280.672	32.88
281.467	34.88
282.262	32.88
283.056	32.88
283.851	33.88
284.646	35.88
285.44	37.88
286.234	34.88
287.029	33.88
287.823	31.88
288.617	33.88
289.411	34.88
290.205	31.88
290.999	29.88
291.793	34.88
292.587	31.88
293.381	29.88
294.174	31.88
294.968	30.88
295.761	28.88
296.555	25.88
297.348	27.88
298.141	26.88
298.935	27.88
299.728	26.88
300.521	24.88
301.314	24.88
302.107	25.88
302.899	26.88
303.692	22.88
304.485	23.88
305.277	21.88
306.07	23.88
306.862	24.88
307.655	22.88
308.447	21.88
309.239	20.88
310.031	19.88
310.823	20.88
311.615	17.88
312.407	17.88
313.199	16.88
313.991	17.88
314.783	18.88
315.574	14.88
316.366	16.88
317.157	13.88
317.949	14.88
318.74	12.88
319.531	14.88
320.322	14.88
321.113	16.88
321.904	14.88
322.695	13.88
323.486	12.88
324.277	13.88
325.068	12.88
325.858	14.88
326.649	13.88
327.439	9.88
328.23	15.88
329.02	12.88
329.81	14.88
330.6	8.88
331.391	15.88
332.181	12.88
332.971	12.88
333.76	10.88
334.55	10.88
335.34	12.88
336.13	12.88
336.919	10.88
337.709	13.88
338.498	12.88
339.287	10.88
340.077	8.88
340.866	13.88
341.655	10.88
342.444	12.88
343.233	11.88
344.022	9.88
344.811	9.88
345.6	10.88
346.388	12.88
347.177	13.88
347.965	10.88
348.754	10.88
349.542	11.88
350.33	11.88
351.119	10.88
351.907	8.88
352.695	10.88
353.483	9.88
354.271	12.88
355.059	8.88
355.846	10.88
356.634	10.88
357.422	11.88
358.209	12.88
358.997	10.88
359.784	9.88
360.571	10.88
361.359	11.88
362.146	11.88
362.933	9.88
363.72	10.88
364.507	9.88
365.294	8.88
366.081	8.88
366.867	10.88
367.654	10.88
368.44	8.88
369.227	8.88
370.013	9.88
370.8	10.88
371.586	8.88
372.372	8.88
373.158	8.88
373.944	10.88
374.73	10.88
375.516	7.88
376.302	10.88
377.088	10.88
377.873	8.88
378.659	9.88
379.445	10.88
380.23	8.88
381.015	10.88
381.801	8.88
382.586	10.88
383.371	7.88
384.156	11.88
384.941	12.88
385.726	10.88
386.511	9.88
387.296	8.88
388.08	9.88
388.865	8.88
389.649	10.88
390.434	10.88
391.218	8.88
392.003	9.88
392.787	9.88
393.571	10.88
394.355	13.88
395.139	11.88
395.923	11.88
396.707	11.88
397.491	13.88
398.274	13.88
399.058	12.88
399.842	12.88
400.625	11.88
401.408	16.88
402.192	12.88
402.975	12.88
403.758	14.88
404.541	13.88
405.324	16.88
406.107	14.88
406.89	14.88
407.673	16.88
408.456	18.88
409.238	17.88
410.021	17.88
410.803	17.88
411.586	14.88
412.368	17.88
413.151	18.88
413.933	15.88
414.715	19.88
415.497	19.88
416.279	16.88
417.061	19.88
417.843	18.88
418.624	18.88
419.406	19.88
420.188	20.88
420.969	22.88
421.751	21.88
422.532	23.88
423.313	25.88
424.095	26.88
424.876	23.88
425.657	26.88
426.438	27.88
427.219	26.88
428	26.88
428.78	27.88
429.561	28.88
430.342	25.88
431.122	33.88
431.903	28.88
432.683	32.88
433.464	36.88
434.244	38.88
435.024	37.88
435.804	41.88
436.584	46.88
437.364	43.88
438.144	46.88
438.924	47.88
439.704	50.88
440.483	56.88
441.263	62.88
442.042	67.88
442.822	68.88
443.601	69.88
444.38	78.88
445.16	80.88
445.939	88.88
446.718	96.88
447.497	107.88
448.276	118.88
449.054	126.88
449.833	140.88
450.612	152.88
451.391	166.88
452.169	190.88
452.948	201.88
453.726	232.88
454.504	250.88
455.282	282.88
456.061	313.88
456.839	350.88
457.617	387.88
458.395	438.88
459.172	492.88
459.95	542.88
460.728	610.88
461.506	684.88
462.283	765.88
463.061	846.88
463.838	953.88
464.615	1058.88
465.393	1190.88
466.17	1326.88
466.947	1477.88
467.724	1645.88
468.501	1824.88
469.278	2023.88
470.055	2256.88
470.831	2490.88
471.608	2735.88
472.385	3013.88
473.161	3356.88
473.938	3696.88
474.714	4086.88
475.49	4496.88
476.266	4957.88
477.043	5403.88
477.819	5958.88
478.595	6519.88
479.371	7131.88
480.146	7837.88
480.922	8531.88
481.698	9392.88
482.473	10208.88
483.249	11121.88
484.024	12153.88
484.8	13151.88
485.575	14353.88
486.35	15594.88
487.126	16924.88
487.901	18338.88
488.676	19825.88
489.451	21488.88
490.225	23136.88
491	24768.88
491.775	26552.88
492.55	28419.88
493.324	30323.88
494.099	32207.88
494.873	34120.88
495.647	35944.88
496.422	37918.88
497.196	39712.88
497.97	41465.88
498.744	42960.88
499.518	44558.88
500.292	45954.88
501.066	46914.88
501.839	47709.88
502.613	48321.88
503.387	48778.88
504.16	49027.88
504.934	48938.88
505.707	48788.88
506.48	48190.88
507.253	47571.88
508.027	46560.88
508.8	45571.88
509.573	44230.88
510.346	43050.88
511.118	41719.88
511.891	40387.88
512.664	38805.88
513.437	37157.88
514.209	35766.88
514.982	34301.88
515.754	32884.88
516.526	31454.88
517.298	30240.88
518.071	29007.88
518.843	27771.88
519.615	26738.88
520.387	25672.88
521.159	24616.88
521.93	23585.88
522.702	22549.88
523.474	21620.88
524.245	20674.88
525.017	19778.88
525.788	18874.88
526.56	18067.88
527.331	17250.88
528.102	16300.88
528.873	15489.88
529.644	14761.88
530.415	14023.88
531.186	13314.88
531.957	12652.88
532.728	11937.88
533.498	11316.88
534.269	10736.88
535.039	10127.88
535.81	9574.88
536.58	9049.88
537.351	8544.88
538.121	8122.88
538.891	7690.88
539.661	7310.88
540.431	6890.88
541.201	6521.88
541.971	6183.88
542.741	5878.88
543.51	5518.88
544.28	5302.88
545.05	5027.88
545.819	4808.88
546.588	4565.88
547.358	4363.88
548.127	4142.88
548.896	3933.88
549.665	3708.88
550.434	3517.88
551.203	3323.88
551.972	3164.88
552.741	3002.88
553.51	2811.88
554.278	2663.88
555.047	2503.88
555.815	2363.88
556.584	2243.88
557.352	2122.88
558.121	2000.88
558.889	1889.88
559.657	1776.88
560.425	1700.88
561.193	1609.88
561.961	1514.88
562.729	1429.88
563.496	1350.88
564.264	1264.88
565.032	1212.88
565.799	1139.88
566.567	1093.88
567.334	1026.88
568.101	972.88
568.869	921.88
569.636	860.88
570.403	814.88
571.17	775.88
571.937	715.88
572.704	686.88
573.471	652.88
574.237	610.88
575.004	577.88
575.771	532.88
576.537	504.88
577.303	485.88
578.07	454.88
578.836	424.88
579.602	406.88
580.368	384.88
581.134	372.88
581.9	354.88
582.666	328.88
583.432	322.88
584.198	298.88
584.964	282.88
585.729	274.88
586.495	258.88
587.26	242.88
588.025	225.88
588.791	215.88
589.556	209.88
590.321	198.88
591.086	185.88
591.851	174.88
592.616	170.88
593.381	159.88
594.146	150.88
594.911	145.88
595.675	141.88
596.44	138.88
597.204	125.88
597.969	128.88
598.733	115.88
599.497	110.88
600.261	107.88
601.025	104.88
601.79	98.88
602.553	94.88
603.317	93.88
604.081	86.88
604.845	87.88
605.609	81.88
606.372	77.88
607.136	77.88
607.899	73.88
608.662	69.88
609.426	68.88
610.189	64.88
610.952	59.88
611.715	59.88
612.478	56.88
613.241	57.88
614.004	52.88
614.767	53.88
615.529	48.88
616.292	51.88
617.055	45.88
617.817	45.88
618.579	43.88
619.342	40.88
620.104	40.88
620.866	38.88
621.628	40.88
622.39	36.88
623.152	36.88
623.914	35.88
624.676	34.88
625.438	33.88
626.199	29.88
626.961	32.88
627.722	32.88
628.484	28.88
629.245	26.88
630.006	26.88
630.768	26.88
631.529	22.88
632.29	26.88
633.051	25.88
633.812	25.88
634.573	25.88
635.333	21.88
636.094	22.88
636.855	20.88
637.615	22.88
638.376	24.88
639.136	21.88
639.896	17.88
640.657	15.88
641.417	17.88
642.177	15.88
642.937	17.88
643.697	18.88
644.457	16.88
645.216	16.88
645.976	16.88
646.736	15.88
647.495	14.88
648.255	15.88
649.014	15.88
649.774	12.88
650.533	16.88
651.292	14.88
652.051	12.88
652.81	12.88
653.569	14.88
654.328	12.88
655.087	14.88
655.846	10.88
656.604	11.88
657.363	12.88
658.121	11.88
658.88	10.88
659.638	12.88
660.397	9.88
661.155	10.88
661.913	10.88
662.671	9.88
663.429	10.88
664.187	9.88
664.945	7.88
665.703	11.88
666.46	13.88
667.218	8.88
667.976	7.88
668.733	12.88
669.49	12.88
670.248	10.88
671.005	8.88
671.762	7.88
672.519	8.88
673.276	9.88
674.033	9.88
674.79	9.88
675.547	6.88
676.304	7.88
677.06	10.88
677.817	9.88
678.574	8.88
679.33	6.88
680.086	7.88
680.843	9.88
681.599	8.88
682.355	7.88
683.111	7.88
683.867	7.88
684.623	9.88
685.379	9.88
686.135	5.88
686.89	9.88
687.646	7.88
688.402	7.88
689.157	8.88
689.912	7.88
690.668	7.88
691.423	8.88
692.178	7.88
692.933	8.88
693.688	7.88
694.443	7.88
695.198	5.88
695.953	6.88
696.708	7.88
697.462	6.88
698.217	6.88
698.972	5.88
699.726	7.88
700.48	9.88
701.235	8.88
701.989	7.88
702.743	8.88
703.497	7.88
704.251	5.88
705.005	6.88
705.759	8.88
706.513	8.88
707.266	8.88
708.02	7.88
708.774	7.88
709.527	5.88
710.28	7.88
711.034	8.88
711.787	6.88
712.54	6.88
713.293	7.88
714.046	3.88
714.799	6.88
715.552	9.88
716.305	7.88
717.058	8.88
717.81	7.88
718.563	5.88
719.315	9.88
720.068	5.88
720.82	7.88
721.573	9.88
722.325	6.88
723.077	8.88
723.829	5.88
724.581	8.88
725.333	8.88
726.085	10.88
726.836	7.88
727.588	7.88
728.34	6.88
729.091	7.88
729.843	9.88
730.594	10.88
731.346	10.88
732.097	7.88
732.848	11.88
733.599	8.88
734.35	9.88
735.101	8.88
735.852	8.88
736.603	9.88
737.354	7.88
738.104	7.88
738.855	10.88
739.605	10.88
740.356	9.88
741.106	9.88
741.856	9.88
742.607	7.88
743.357	9.88
744.107	10.88
744.857	10.88
745.607	10.88
746.357	9.88
747.106	8.88
747.856	11.88
748.606	13.88
749.355	9.88
750.105	9.88
750.854	10.88
751.603	10.88
752.353	10.88
753.102	11.88
753.851	12.88
754.6	13.88
755.349	10.88
756.098	9.88
756.847	10.88
757.595	10.88
758.344	14.88
759.093	10.88
759.841	12.88
760.589	10.88
761.338	12.88
762.086	13.88
762.834	9.88
763.582	11.88
764.331	14.88
765.079	13.88
765.826	15.88
766.574	14.88
767.322	14.88
768.07	9.88
768.817	14.88
769.565	13.88
770.312	12.88
771.06	14.88
771.807	12.88
772.554	12.88
773.302	13.88
774.049	15.88
774.796	14.88
775.543	16.88
776.29	14.88
777.036	15.88
777.783	15.88
778.53	15.88
779.276	12.88
780.023	18.88
780.769	17.88
781.516	16.88
782.262	16.88
783.008	12.88
783.754	16.88
784.5	14.88
785.246	14.88
785.992	16.88
786.738	17.88
787.484	16.88
788.23	14.88
788.975	17.88
789.721	13.88
790.466	18.88
791.212	13.88
791.957	12.88
792.702	15.88
793.447	14.88
794.193	11.88
794.938	14.88
795.683	13.88
796.427	14.88
797.172	12.88
797.917	12.88
798.662	12.88
799.406	11.88
800.151	12.88
800.895	10.88
801.64	11.88
802.384	13.88
803.128	10.88
803.872	11.88
804.616	8.88
805.36	11.88
806.104	11.88
806.848	11.88
807.592	12.88
808.336	9.88
809.079	10.88
809.823	6.88
810.566	9.88
811.31	11.88
812.053	8.88
812.796	10.88
813.539	7.88
814.283	9.88
815.026	7.88
815.769	8.88
816.511	6.88
817.254	9.88
817.997	9.88
818.74	8.88
819.482	7.88
820.225	7.88
820.967	9.88
821.71	6.88
822.452	7.88
823.194	7.88
823.936	5.88
824.678	6.88
825.42	8.88
826.162	7.88
826.904	4.88
827.646	6.88
828.388	7.88
829.129	2.88
829.871	7.88
830.612	7.88
831.354	5.88
832.095	5.88
832.836	6.88
833.577	4.88
834.319	2.88
835.06	6.88
835.801	4.88
836.542	4.88
837.282	3.88
838.023	4.88
838.764	5.88
839.504	4.88
840.245	4.88
840.985	4.88
841.726	2.88
842.466	6.88
843.206	3.88
843.946	5.88
844.687	4.88
845.427	5.88
846.166	5.88
846.906	4.88
847.646	3.88
848.386	3.88
849.125	4.88
849.865	5.88
850.605	2.88
851.344	4.88
852.083	7.88
852.823	3.88
853.562	6.88
854.301	3.88
855.04	2.88
855.779	2.88
856.518	3.88
857.257	0.88
857.995	3.88
858.734	3.88
859.473	4.88
860.211	2.88
860.95	5.88
861.688	4.88
862.426	3.88
863.165	2.88
863.903	3.88
864.641	2.88
865.379	1.88
866.117	3.88
866.855	1.88
867.593	3.88
868.33	1.88
869.068	1.88
869.806	1.88
870.543	0.88
871.28	1.88
872.018	2.88
872.755	0.88
873.492	2.88
874.229	2.88
874.967	3.88
875.703	0.88
876.44	-0.12
877.177	1.88
877.914	3.88
878.651	1.88
879.387	0.88
880.124	2.88
880.86	2.88
881.597	0.88
882.333	-0.12
883.069	0.88
883.806	-1.12
884.542	0.88
885.278	-0.12
886.014	-2.12
886.749	-0.12
887.485	2.88
888.221	2.88
888.957	1.88
889.692	2.88
890.428	1.88
891.163	1.88
891.899	3.88
892.634	0.88
893.369	1.88
894.104	1.88
894.839	0.88
895.574	1.88
896.309	0.88
897.044	0.88
897.779	1.88
898.514	2.88
899.248	0.88
899.983	0.88
900.717	0.88
901.452	-1.12
902.186	2.88
902.92	-0.12
903.654	-0.12
904.389	1.88
905.123	1.88
905.857	0.88
906.59	-0.12
907.324	0.88
908.058	0.88
908.792	-1.12
909.525	-0.12
910.259	1.88
910.992	0.88
911.726	-0.12
912.459	1.88
913.192	-0.12
913.925	1.88
914.658	0.88
915.391	-1.12
916.124	2.88
916.857	-2.12
917.59	0.88
918.323	-0.12
919.055	-1.12
919.788	-0.12
920.521	0.88
921.253	1.88
921.985	-0.12
922.718	-0.12
923.45	-1.12
924.182	0.88
924.914	0.88
925.646	-1.12
926.378	0.88
927.11	-1.12
927.841	-1.12
928.573	1.88
929.305	-2.12
930.036	0.88
930.768	-0.12
931.499	-1.12
932.23	-0.12
932.962	-0.12
933.693	-0.12
934.424	-0.12
935.155	-0.12
935.886	-1.12
936.617	-1.12
937.348	-1.12
938.078	0.88
938.809	0.88
939.54	1.88
940.27	1.88
941.001	2.88
941.731	-1.12
942.461	-0.12
943.191	-1.12
943.922	-0.12
944.652	-0.12
945.382	-0.12
946.112	0.88
946.841	0.88
947.571	-0.12
948.301	-2.12
949.031	0.88
949.76	0.88
950.49	0.88
951.219	1.88
951.948	-1.12
952.678	0.88
953.407	-0.12
954.136	0.88
954.865	0.88
955.594	0.88
956.323	2.88
957.052	-2.12
957.78	0.88
958.509	-1.12
959.238	-0.12
959.966	-1.12
960.695	0.88
961.423	1.88
962.151	-0.12
962.88	-2.12
963.608	-0.12
964.336	1.88
965.064	-0.12
965.792	-2.12
966.52	0.88
967.247	1.88
967.975	1.88
968.703	0.88
969.43	0.88
970.158	0.88
970.885	-1.12
971.613	0.88
972.34	0.88
973.067	-0.12
973.794	0.88
974.521	1.88
975.248	0.88
975.975	-1.12
976.702	0.88
977.429	2.88
978.156	-0.12
978.882	-1.12
979.609	-2.12
980.335	-0.12
981.062	-1.12
981.788	1.88
982.514	-0.12
983.24	-0.12
983.967	0.88
984.693	-1.12
985.419	0.88
986.144	0.88
986.87	-0.12
987.596	-0.12
988.322	-0.12
989.047	1.88
989.773	0.88
990.498	0.88
991.224	-0.12
991.949	-0.12
992.674	-0.12
993.399	-0.12
994.124	-1.12
994.849	0.88
995.574	0.88
996.299	-0.12
997.024	0.88
997.749	0.88
998.473	-1.12
999.198	-0.12
999.922	0.88
1000.647	-1.12
1001.371	2.88
1002.095	-1.12
1002.82	-1.12
1003.544	-0.12
1004.268	4.88
1004.992	2.88
1005.716	4.88
1006.439	3.88
1007.163	4.88
1007.887	5.88
1008.611	-1.12
1009.334	-2.12
1010.058	0.88
1010.781	2.88
1011.504	0.88
1012.228	-0.12
1012.951	-0.12
1013.674	-0.12
1014.397	-1.12
1015.12	0.88
