节点500_705_QEPB04081__454__20-52-19-763.txt的数据

Date: Wed Nov 12 20:52:19 CST 2025
User: PC
Spectrometer: QEPB0408
触发模式: 0
积分时间 (秒): 1.000000E-2
Scans to average: 1
启用暗噪声校正: true
启用非线性校正: false
滑动平均宽度: 0
X轴模式: Wavelengths
Number of Pixels in Spectrum: 1044
>>>>>Begin Spectral Data<<<<<
220.843	5.5
221.644	7.5
222.444	7.5
223.244	8.5
224.045	8.5
224.845	8.5
225.645	6.5
226.445	9.5
227.245	8.5
228.045	9.5
228.845	7.5
229.645	9.5
230.444	8.5
231.244	8.5
232.043	6.5
232.843	7.5
233.642	9.5
234.442	11.5
235.241	8.5
236.04	11.5
236.839	10.5
237.638	10.5
238.437	10.5
239.236	11.5
240.035	10.5
240.833	10.5
241.632	13.5
242.43	10.5
243.229	11.5
244.027	11.5
244.826	12.5
245.624	15.5
246.422	10.5
247.22	14.5
248.018	11.5
248.816	16.5
249.614	15.5
250.412	12.5
251.21	15.5
252.007	19.5
252.805	15.5
253.602	15.5
254.4	16.5
255.197	19.5
255.994	19.5
256.791	19.5
257.589	18.5
258.386	18.5
259.183	21.5
259.979	22.5
260.776	20.5
261.573	22.5
262.37	19.5
263.166	23.5
263.963	22.5
264.759	24.5
265.556	25.5
266.352	27.5
267.148	29.5
267.944	26.5
268.74	27.5
269.536	29.5
270.332	27.5
271.128	30.5
271.924	31.5
272.719	31.5
273.515	30.5
274.311	32.5
275.106	31.5
275.901	34.5
276.697	33.5
277.492	31.5
278.287	32.5
279.082	28.5
279.877	34.5
280.672	34.5
281.467	34.5
282.262	36.5
283.056	34.5
283.851	33.5
284.646	32.5
285.44	35.5
286.234	35.5
287.029	30.5
287.823	30.5
288.617	32.5
289.411	33.5
290.205	31.5
290.999	30.5
291.793	31.5
292.587	29.5
293.381	31.5
294.174	30.5
294.968	29.5
295.761	27.5
296.555	28.5
297.348	27.5
298.141	28.5
298.935	29.5
299.728	25.5
300.521	25.5
301.314	24.5
302.107	23.5
302.899	26.5
303.692	22.5
304.485	22.5
305.277	20.5
306.07	25.5
306.862	24.5
307.655	22.5
308.447	22.5
309.239	19.5
310.031	20.5
310.823	21.5
311.615	18.5
312.407	17.5
313.199	18.5
313.991	17.5
314.783	18.5
315.574	16.5
316.366	14.5
317.157	15.5
317.949	16.5
318.74	15.5
319.531	15.5
320.322	14.5
321.113	15.5
321.904	16.5
322.695	12.5
323.486	14.5
324.277	13.5
325.068	12.5
325.858	15.5
326.649	13.5
327.439	10.5
328.23	14.5
329.02	11.5
329.81	11.5
330.6	14.5
331.391	11.5
332.181	14.5
332.971	15.5
333.76	12.5
334.55	11.5
335.34	11.5
336.13	14.5
336.919	11.5
337.709	10.5
338.498	12.5
339.287	12.5
340.077	9.5
340.866	11.5
341.655	11.5
342.444	13.5
343.233	12.5
344.022	11.5
344.811	10.5
345.6	13.5
346.388	11.5
347.177	13.5
347.965	12.5
348.754	10.5
349.542	10.5
350.33	10.5
351.119	11.5
351.907	12.5
352.695	9.5
353.483	9.5
354.271	7.5
355.059	11.5
355.846	11.5
356.634	10.5
357.422	9.5
358.209	9.5
358.997	10.5
359.784	11.5
360.571	11.5
361.359	12.5
362.146	8.5
362.933	9.5
363.72	9.5
364.507	10.5
365.294	11.5
366.081	11.5
366.867	7.5
367.654	9.5
368.44	7.5
369.227	9.5
370.013	9.5
370.8	13.5
371.586	8.5
372.372	8.5
373.158	8.5
373.944	10.5
374.73	11.5
375.516	10.5
376.302	11.5
377.088	7.5
377.873	11.5
378.659	11.5
379.445	9.5
380.23	10.5
381.015	9.5
381.801	11.5
382.586	9.5
383.371	10.5
384.156	10.5
384.941	12.5
385.726	10.5
386.511	10.5
387.296	9.5
388.08	12.5
388.865	11.5
389.649	11.5
390.434	11.5
391.218	14.5
392.003	12.5
392.787	13.5
393.571	13.5
394.355	12.5
395.139	13.5
395.923	11.5
396.707	11.5
397.491	14.5
398.274	13.5
399.058	13.5
399.842	13.5
400.625	13.5
401.408	12.5
402.192	15.5
402.975	13.5
403.758	15.5
404.541	11.5
405.324	15.5
406.107	16.5
406.89	12.5
407.673	15.5
408.456	16.5
409.238	15.5
410.021	16.5
410.803	18.5
411.586	18.5
412.368	14.5
413.151	19.5
413.933	15.5
414.715	18.5
415.497	19.5
416.279	18.5
417.061	19.5
417.843	19.5
418.624	18.5
419.406	21.5
420.188	19.5
420.969	20.5
421.751	20.5
422.532	22.5
423.313	22.5
424.095	25.5
424.876	24.5
425.657	20.5
426.438	26.5
427.219	26.5
428	26.5
428.78	30.5
429.561	27.5
430.342	30.5
431.122	27.5
431.903	31.5
432.683	36.5
433.464	34.5
434.244	37.5
435.024	38.5
435.804	40.5
436.584	44.5
437.364	46.5
438.144	49.5
438.924	48.5
439.704	53.5
440.483	56.5
441.263	60.5
442.042	64.5
442.822	69.5
443.601	77.5
444.38	80.5
445.16	89.5
445.939	99.5
446.718	109.5
447.497	114.5
448.276	125.5
449.054	139.5
449.833	150.5
450.612	168.5
451.391	181.5
452.169	210.5
452.948	227.5
453.726	246.5
454.504	285.5
455.282	307.5
456.061	349.5
456.839	380.5
457.617	426.5
458.395	473.5
459.172	529.5
459.95	587.5
460.728	662.5
461.506	729.5
462.283	801.5
463.061	901.5
463.838	999.5
464.615	1127.5
465.393	1245.5
466.17	1383.5
466.947	1533.5
467.724	1694.5
468.501	1860.5
469.278	2060.5
470.055	2262.5
470.831	2520.5
471.608	2761.5
472.385	3033.5
473.161	3351.5
473.938	3653.5
474.714	3982.5
475.49	4419.5
476.266	4801.5
477.043	5263.5
477.819	5723.5
478.595	6226.5
479.371	6774.5
480.146	7376.5
480.922	8029.5
481.698	8730.5
482.473	9461.5
483.249	10296.5
484.024	11145.5
484.8	12091.5
485.575	13025.5
486.35	14086.5
487.126	15256.5
487.901	16362.5
488.676	17675.5
489.451	19039.5
490.225	20439.5
491	21932.5
491.775	23376.5
492.55	24975.5
493.324	26594.5
494.099	28225.5
494.873	29931.5
495.647	31670.5
496.422	33318.5
497.196	34951.5
497.97	36708.5
498.744	38173.5
499.518	39752.5
500.292	41061.5
501.066	42168.5
501.839	43095.5
502.613	43899.5
503.387	44713.5
504.16	45191.5
504.934	45501.5
505.707	45546.5
506.48	45354.5
507.253	44997.5
508.027	44604.5
508.8	43751.5
509.573	42916.5
510.346	42066.5
511.118	41154.5
511.891	39981.5
512.664	38543.5
513.437	37215.5
514.209	35960.5
514.982	34543.5
515.754	33250.5
516.526	31943.5
517.298	30691.5
518.071	29510.5
518.843	28404.5
519.615	27199.5
520.387	26128.5
521.159	25148.5
521.93	24068.5
522.702	23089.5
523.474	22116.5
524.245	21242.5
525.017	20368.5
525.788	19462.5
526.56	18731.5
527.331	17864.5
528.102	17015.5
528.873	16124.5
529.644	15362.5
530.415	14673.5
531.186	14033.5
531.957	13317.5
532.728	12607.5
533.498	11966.5
534.269	11329.5
535.039	10753.5
535.81	10181.5
536.58	9624.5
537.351	9115.5
538.121	8678.5
538.891	8173.5
539.661	7748.5
540.431	7311.5
541.201	6946.5
541.971	6558.5
542.741	6203.5
543.51	5874.5
544.28	5632.5
545.05	5342.5
545.819	5123.5
546.588	4867.5
547.358	4643.5
548.127	4418.5
548.896	4209.5
549.665	4010.5
550.434	3787.5
551.203	3587.5
551.972	3407.5
552.741	3213.5
553.51	3035.5
554.278	2869.5
555.047	2709.5
555.815	2565.5
556.584	2430.5
557.352	2284.5
558.121	2187.5
558.889	2050.5
559.657	1927.5
560.425	1823.5
561.193	1746.5
561.961	1653.5
562.729	1537.5
563.496	1470.5
564.264	1388.5
565.032	1302.5
565.799	1235.5
566.567	1179.5
567.334	1111.5
568.101	1049.5
568.869	997.5
569.636	930.5
570.403	886.5
571.17	834.5
571.937	785.5
572.704	742.5
573.471	704.5
574.237	661.5
575.004	630.5
575.771	585.5
576.537	560.5
577.303	530.5
578.07	497.5
578.836	465.5
579.602	444.5
580.368	417.5
581.134	403.5
581.9	379.5
582.666	367.5
583.432	352.5
584.198	323.5
584.964	310.5
585.729	294.5
586.495	275.5
587.26	267.5
588.025	246.5
588.791	240.5
589.556	219.5
590.321	215.5
591.086	202.5
591.851	191.5
592.616	182.5
593.381	173.5
594.146	164.5
594.911	158.5
595.675	154.5
596.44	147.5
597.204	137.5
597.969	133.5
598.733	129.5
599.497	119.5
600.261	116.5
601.025	110.5
601.79	108.5
602.553	105.5
603.317	97.5
604.081	94.5
604.845	91.5
605.609	87.5
606.372	85.5
607.136	79.5
607.899	77.5
608.662	73.5
609.426	69.5
610.189	70.5
610.952	66.5
611.715	64.5
612.478	60.5
613.241	59.5
614.004	59.5
614.767	52.5
615.529	53.5
616.292	50.5
617.055	50.5
617.817	50.5
618.579	47.5
619.342	47.5
620.104	39.5
620.866	44.5
621.628	40.5
622.39	38.5
623.152	38.5
623.914	38.5
624.676	36.5
625.438	30.5
626.199	34.5
626.961	31.5
627.722	34.5
628.484	31.5
629.245	27.5
630.006	30.5
630.768	24.5
631.529	28.5
632.29	28.5
633.051	24.5
633.812	25.5
634.573	22.5
635.333	24.5
636.094	20.5
636.855	25.5
637.615	21.5
638.376	21.5
639.136	18.5
639.896	19.5
640.657	22.5
641.417	20.5
642.177	19.5
642.937	19.5
643.697	18.5
644.457	17.5
645.216	18.5
645.976	18.5
646.736	15.5
647.495	14.5
648.255	14.5
649.014	13.5
649.774	16.5
650.533	14.5
651.292	14.5
652.051	13.5
652.81	15.5
653.569	15.5
654.328	10.5
655.087	12.5
655.846	15.5
656.604	13.5
657.363	13.5
658.121	10.5
658.88	12.5
659.638	12.5
660.397	12.5
661.155	11.5
661.913	11.5
662.671	12.5
663.429	8.5
664.187	12.5
664.945	10.5
665.703	11.5
666.46	11.5
667.218	9.5
667.976	9.5
668.733	11.5
669.49	12.5
670.248	11.5
671.005	10.5
671.762	8.5
672.519	11.5
673.276	12.5
674.033	9.5
674.79	8.5
675.547	7.5
676.304	9.5
677.06	10.5
677.817	9.5
678.574	8.5
679.33	7.5
680.086	11.5
680.843	9.5
681.599	7.5
682.355	10.5
683.111	7.5
683.867	10.5
684.623	7.5
685.379	9.5
686.135	9.5
686.89	8.5
687.646	10.5
688.402	5.5
689.157	8.5
689.912	7.5
690.668	9.5
691.423	8.5
692.178	9.5
692.933	8.5
693.688	8.5
694.443	7.5
695.198	7.5
695.953	6.5
696.708	7.5
697.462	8.5
698.217	8.5
698.972	9.5
699.726	9.5
700.48	9.5
701.235	5.5
701.989	8.5
702.743	5.5
703.497	8.5
704.251	8.5
705.005	7.5
705.759	6.5
706.513	9.5
707.266	7.5
708.02	9.5
708.774	5.5
709.527	8.5
710.28	7.5
711.034	9.5
711.787	9.5
712.54	6.5
713.293	8.5
714.046	7.5
714.799	7.5
715.552	6.5
716.305	8.5
717.058	8.5
717.81	5.5
718.563	9.5
719.315	9.5
720.068	10.5
720.82	8.5
721.573	9.5
722.325	10.5
723.077	8.5
723.829	9.5
724.581	7.5
725.333	9.5
726.085	9.5
726.836	7.5
727.588	7.5
728.34	9.5
729.091	8.5
729.843	8.5
730.594	9.5
731.346	9.5
732.097	9.5
732.848	12.5
733.599	11.5
734.35	10.5
735.101	6.5
735.852	11.5
736.603	8.5
737.354	11.5
738.104	10.5
738.855	9.5
739.605	9.5
740.356	9.5
741.106	10.5
741.856	9.5
742.607	10.5
743.357	9.5
744.107	12.5
744.857	11.5
745.607	11.5
746.357	10.5
747.106	8.5
747.856	9.5
748.606	11.5
749.355	9.5
750.105	9.5
750.854	10.5
751.603	11.5
752.353	12.5
753.102	13.5
753.851	12.5
754.6	13.5
755.349	11.5
756.098	12.5
756.847	12.5
757.595	12.5
758.344	12.5
759.093	11.5
759.841	13.5
760.589	13.5
761.338	12.5
762.086	12.5
762.834	14.5
763.582	11.5
764.331	14.5
765.079	11.5
765.826	14.5
766.574	13.5
767.322	13.5
768.07	15.5
768.817	14.5
769.565	13.5
770.312	12.5
771.06	14.5
771.807	14.5
772.554	13.5
773.302	12.5
774.049	13.5
774.796	13.5
775.543	16.5
776.29	15.5
777.036	18.5
777.783	16.5
778.53	15.5
779.276	15.5
780.023	15.5
780.769	14.5
781.516	17.5
782.262	15.5
783.008	16.5
783.754	13.5
784.5	15.5
785.246	14.5
785.992	15.5
786.738	15.5
787.484	16.5
788.23	18.5
788.975	14.5
789.721	15.5
790.466	14.5
791.212	15.5
791.957	14.5
792.702	15.5
793.447	14.5
794.193	14.5
794.938	13.5
795.683	13.5
796.427	12.5
797.172	14.5
797.917	12.5
798.662	13.5
799.406	12.5
800.151	14.5
800.895	15.5
801.64	12.5
802.384	12.5
803.128	11.5
803.872	13.5
804.616	9.5
805.36	15.5
806.104	11.5
806.848	12.5
807.592	13.5
808.336	10.5
809.079	13.5
809.823	10.5
810.566	7.5
811.31	11.5
812.053	9.5
812.796	10.5
813.539	10.5
814.283	8.5
815.026	12.5
815.769	6.5
816.511	11.5
817.254	7.5
817.997	8.5
818.74	7.5
819.482	8.5
820.225	8.5
820.967	9.5
821.71	8.5
822.452	6.5
823.194	8.5
823.936	8.5
824.678	7.5
825.42	8.5
826.162	6.5
826.904	7.5
827.646	6.5
828.388	9.5
829.129	9.5
829.871	6.5
830.612	9.5
831.354	4.5
832.095	6.5
832.836	7.5
833.577	8.5
834.319	6.5
835.06	5.5
835.801	7.5
836.542	6.5
837.282	5.5
838.023	5.5
838.764	7.5
839.504	7.5
840.245	5.5
840.985	7.5
841.726	5.5
842.466	6.5
843.206	6.5
843.946	5.5
844.687	4.5
845.427	3.5
846.166	6.5
846.906	4.5
847.646	4.5
848.386	6.5
849.125	5.5
849.865	4.5
850.605	4.5
851.344	5.5
852.083	3.5
852.823	1.5
853.562	6.5
854.301	6.5
855.04	4.5
855.779	2.5
856.518	6.5
857.257	5.5
857.995	5.5
858.734	3.5
859.473	2.5
860.211	5.5
860.95	3.5
861.688	1.5
862.426	3.5
863.165	2.5
863.903	2.5
864.641	4.5
865.379	4.5
866.117	3.5
866.855	5.5
867.593	2.5
868.33	3.5
869.068	0.5
869.806	2.5
870.543	3.5
871.28	3.5
872.018	3.5
872.755	2.5
873.492	3.5
874.229	3.5
874.967	3.5
875.703	3.5
876.44	3.5
877.177	-1.5
877.914	3.5
878.651	2.5
879.387	3.5
880.124	2.5
880.86	2.5
881.597	2.5
882.333	3.5
883.069	2.5
883.806	3.5
884.542	1.5
885.278	3.5
886.014	-0.5
886.749	2.5
887.485	0.5
888.221	4.5
888.957	3.5
889.692	1.5
890.428	1.5
891.163	-0.5
891.899	2.5
892.634	2.5
893.369	0.5
894.104	2.5
894.839	-0.5
895.574	3.5
896.309	1.5
897.044	0.5
897.779	3.5
898.514	1.5
899.248	3.5
899.983	0.5
900.717	2.5
901.452	0.5
902.186	1.5
902.92	1.5
903.654	1.5
904.389	0.5
905.123	2.5
905.857	-0.5
906.59	0.5
907.324	0.5
908.058	-0.5
908.792	0.5
909.525	0.5
910.259	1.5
910.992	0.5
911.726	3.5
912.459	1.5
913.192	3.5
913.925	1.5
914.658	1.5
915.391	2.5
916.124	0.5
916.857	-0.5
917.59	-0.5
918.323	1.5
919.055	2.5
919.788	1.5
920.521	1.5
921.253	0.5
921.985	1.5
922.718	-0.5
923.45	3.5
924.182	-0.5
924.914	2.5
925.646	1.5
926.378	0.5
927.11	0.5
927.841	1.5
928.573	0.5
929.305	-0.5
930.036	0.5
930.768	1.5
931.499	1.5
932.23	1.5
932.962	0.5
933.693	-0.5
934.424	1.5
935.155	-0.5
935.886	2.5
936.617	0.5
937.348	-0.5
938.078	0.5
938.809	-1.5
939.54	0.5
940.27	0.5
941.001	1.5
941.731	2.5
942.461	3.5
943.191	1.5
943.922	-0.5
944.652	0.5
945.382	0.5
946.112	1.5
946.841	1.5
947.571	-0.5
948.301	-0.5
949.031	3.5
949.76	0.5
950.49	0.5
951.219	0.5
951.948	0.5
952.678	1.5
953.407	2.5
954.136	1.5
954.865	3.5
955.594	2.5
956.323	1.5
957.052	0.5
957.78	0.5
958.509	-0.5
959.238	-0.5
959.966	3.5
960.695	-0.5
961.423	-0.5
962.151	0.5
962.88	2.5
963.608	-0.5
964.336	1.5
965.064	0.5
965.792	1.5
966.52	1.5
967.247	-0.5
967.975	1.5
968.703	5.5
969.43	0.5
970.158	0.5
970.885	-0.5
971.613	-0.5
972.34	-1.5
973.067	-1.5
973.794	0.5
974.521	1.5
975.248	0.5
975.975	-0.5
976.702	-0.5
977.429	2.5
978.156	1.5
978.882	2.5
979.609	2.5
980.335	-0.5
981.062	-0.5
981.788	-2.5
982.514	-0.5
983.24	1.5
983.967	-0.5
984.693	0.5
985.419	-0.5
986.144	2.5
986.87	1.5
987.596	1.5
988.322	3.5
989.047	1.5
989.773	0.5
990.498	0.5
991.224	-0.5
991.949	2.5
992.674	1.5
993.399	0.5
994.124	1.5
994.849	3.5
995.574	0.5
996.299	3.5
997.024	0.5
997.749	1.5
998.473	0.5
999.198	0.5
999.922	-0.5
1000.647	2.5
1001.371	3.5
1002.095	-0.5
1002.82	-0.5
1003.544	-1.5
1004.268	4.5
1004.992	7.5
1005.716	5.5
1006.439	6.5
1007.163	4.5
1007.887	3.5
1008.611	2.5
1009.334	-0.5
1010.058	1.5
1010.781	3.5
1011.504	0.5
1012.228	-0.5
1012.951	0.5
1013.674	-1.5
1014.397	0.5
1015.12	-0.5
