节点500_705_QEPB04081__217__20-48-59-491.txt的数据

Date: Wed Nov 12 20:48:59 CST 2025
User: PC
Spectrometer: QEPB0408
触发模式: 0
积分时间 (秒): 1.000000E-2
Scans to average: 1
启用暗噪声校正: true
启用非线性校正: false
滑动平均宽度: 0
X轴模式: Wavelengths
Number of Pixels in Spectrum: 1044
>>>>>Begin Spectral Data<<<<<
220.843	7.62
221.644	6.62
222.444	5.62
223.244	6.62
224.045	6.62
224.845	7.62
225.645	6.62
226.445	8.62
227.245	6.62
228.045	10.62
228.845	8.62
229.645	6.62
230.444	7.62
231.244	8.62
232.043	10.62
232.843	8.62
233.642	11.62
234.442	10.62
235.241	9.62
236.04	9.62
236.839	10.62
237.638	12.62
238.437	12.62
239.236	10.62
240.035	14.62
240.833	13.62
241.632	13.62
242.43	13.62
243.229	13.62
244.027	12.62
244.826	13.62
245.624	13.62
246.422	12.62
247.22	15.62
248.018	13.62
248.816	16.62
249.614	16.62
250.412	18.62
251.21	17.62
252.007	15.62
252.805	16.62
253.602	16.62
254.4	19.62
255.197	19.62
255.994	21.62
256.791	22.62
257.589	23.62
258.386	22.62
259.183	24.62
259.979	22.62
260.776	25.62
261.573	25.62
262.37	23.62
263.166	29.62
263.963	25.62
264.759	28.62
265.556	31.62
266.352	28.62
267.148	31.62
267.944	28.62
268.74	30.62
269.536	30.62
270.332	32.62
271.128	29.62
271.924	32.62
272.719	31.62
273.515	35.62
274.311	33.62
275.106	34.62
275.901	34.62
276.697	37.62
277.492	35.62
278.287	34.62
279.082	35.62
279.877	36.62
280.672	37.62
281.467	36.62
282.262	38.62
283.056	36.62
283.851	34.62
284.646	35.62
285.44	36.62
286.234	35.62
287.029	33.62
287.823	34.62
288.617	33.62
289.411	31.62
290.205	34.62
290.999	33.62
291.793	33.62
292.587	34.62
293.381	32.62
294.174	30.62
294.968	32.62
295.761	31.62
296.555	28.62
297.348	28.62
298.141	26.62
298.935	29.62
299.728	27.62
300.521	26.62
301.314	24.62
302.107	24.62
302.899	24.62
303.692	21.62
304.485	19.62
305.277	23.62
306.07	21.62
306.862	23.62
307.655	22.62
308.447	23.62
309.239	21.62
310.031	20.62
310.823	21.62
311.615	18.62
312.407	19.62
313.199	17.62
313.991	17.62
314.783	19.62
315.574	18.62
316.366	17.62
317.157	14.62
317.949	17.62
318.74	16.62
319.531	14.62
320.322	16.62
321.113	13.62
321.904	15.62
322.695	15.62
323.486	16.62
324.277	15.62
325.068	13.62
325.858	13.62
326.649	13.62
327.439	13.62
328.23	9.62
329.02	12.62
329.81	13.62
330.6	11.62
331.391	12.62
332.181	14.62
332.971	12.62
333.76	11.62
334.55	15.62
335.34	12.62
336.13	12.62
336.919	13.62
337.709	11.62
338.498	12.62
339.287	11.62
340.077	12.62
340.866	12.62
341.655	10.62
342.444	12.62
343.233	10.62
344.022	11.62
344.811	12.62
345.6	12.62
346.388	12.62
347.177	9.62
347.965	12.62
348.754	12.62
349.542	12.62
350.33	10.62
351.119	11.62
351.907	11.62
352.695	8.62
353.483	11.62
354.271	10.62
355.059	11.62
355.846	11.62
356.634	9.62
357.422	10.62
358.209	12.62
358.997	11.62
359.784	10.62
360.571	9.62
361.359	11.62
362.146	11.62
362.933	10.62
363.72	10.62
364.507	9.62
365.294	10.62
366.081	11.62
366.867	10.62
367.654	12.62
368.44	10.62
369.227	8.62
370.013	11.62
370.8	10.62
371.586	8.62
372.372	10.62
373.158	9.62
373.944	12.62
374.73	9.62
375.516	10.62
376.302	8.62
377.088	10.62
377.873	10.62
378.659	9.62
379.445	10.62
380.23	10.62
381.015	10.62
381.801	12.62
382.586	12.62
383.371	11.62
384.156	10.62
384.941	8.62
385.726	13.62
386.511	11.62
387.296	13.62
388.08	10.62
388.865	12.62
389.649	12.62
390.434	12.62
391.218	11.62
392.003	11.62
392.787	13.62
393.571	12.62
394.355	13.62
395.139	16.62
395.923	12.62
396.707	16.62
397.491	13.62
398.274	15.62
399.058	13.62
399.842	11.62
400.625	16.62
401.408	13.62
402.192	16.62
402.975	15.62
403.758	13.62
404.541	13.62
405.324	14.62
406.107	16.62
406.89	16.62
407.673	16.62
408.456	15.62
409.238	16.62
410.021	20.62
410.803	15.62
411.586	18.62
412.368	15.62
413.151	16.62
413.933	20.62
414.715	18.62
415.497	22.62
416.279	19.62
417.061	21.62
417.843	18.62
418.624	21.62
419.406	18.62
420.188	25.62
420.969	21.62
421.751	22.62
422.532	25.62
423.313	24.62
424.095	20.62
424.876	26.62
425.657	25.62
426.438	27.62
427.219	27.62
428	27.62
428.78	26.62
429.561	27.62
430.342	29.62
431.122	31.62
431.903	35.62
432.683	33.62
433.464	34.62
434.244	35.62
435.024	38.62
435.804	43.62
436.584	47.62
437.364	48.62
438.144	49.62
438.924	51.62
439.704	51.62
440.483	59.62
441.263	62.62
442.042	68.62
442.822	66.62
443.601	73.62
444.38	78.62
445.16	86.62
445.939	94.62
446.718	100.62
447.497	106.62
448.276	121.62
449.054	131.62
449.833	141.62
450.612	160.62
451.391	167.62
452.169	187.62
452.948	215.62
453.726	232.62
454.504	252.62
455.282	281.62
456.061	322.62
456.839	363.62
457.617	397.62
458.395	451.62
459.172	488.62
459.95	569.62
460.728	619.62
461.506	683.62
462.283	755.62
463.061	859.62
463.838	956.62
464.615	1070.62
465.393	1179.62
466.17	1326.62
466.947	1482.62
467.724	1639.62
468.501	1811.62
469.278	2024.62
470.055	2239.62
470.831	2478.62
471.608	2736.62
472.385	3044.62
473.161	3360.62
473.938	3696.62
474.714	4071.62
475.49	4475.62
476.266	4922.62
477.043	5372.62
477.819	5871.62
478.595	6467.62
479.371	7083.62
480.146	7757.62
480.922	8497.62
481.698	9277.62
482.473	10117.62
483.249	11048.62
484.024	12007.62
484.8	13043.62
485.575	14093.62
486.35	15363.62
487.126	16730.62
487.901	18082.62
488.676	19585.62
489.451	21166.62
490.225	22726.62
491	24330.62
491.775	26111.62
492.55	27936.62
493.324	29800.62
494.099	31613.62
494.873	33507.62
495.647	35385.62
496.422	37346.62
497.196	39123.62
497.97	40767.62
498.744	42317.62
499.518	43898.62
500.292	45257.62
501.066	46245.62
501.839	47026.62
502.613	47670.62
503.387	48265.62
504.16	48616.62
504.934	48563.62
505.707	48404.62
506.48	47901.62
507.253	47210.62
508.027	46360.62
508.8	45187.62
509.573	44021.62
510.346	42868.62
511.118	41696.62
511.891	40357.62
512.664	38701.62
513.437	37174.62
514.209	35730.62
514.982	34304.62
515.754	32910.62
516.526	31507.62
517.298	30238.62
518.071	28997.62
518.843	27757.62
519.615	26711.62
520.387	25681.62
521.159	24631.62
521.93	23551.62
522.702	22621.62
523.474	21626.62
524.245	20690.62
525.017	19799.62
525.788	18908.62
526.56	18097.62
527.331	17267.62
528.102	16375.62
528.873	15554.62
529.644	14785.62
530.415	14084.62
531.186	13387.62
531.957	12680.62
532.728	12005.62
533.498	11383.62
534.269	10778.62
535.039	10185.62
535.81	9622.62
536.58	9104.62
537.351	8636.62
538.121	8189.62
538.891	7752.62
539.661	7316.62
540.431	6921.62
541.201	6553.62
541.971	6206.62
542.741	5871.62
543.51	5570.62
544.28	5319.62
545.05	5096.62
545.819	4825.62
546.588	4619.62
547.358	4374.62
548.127	4165.62
548.896	3939.62
549.665	3750.62
550.434	3546.62
551.203	3368.62
551.972	3187.62
552.741	3028.62
553.51	2833.62
554.278	2694.62
555.047	2537.62
555.815	2393.62
556.584	2268.62
557.352	2141.62
558.121	2012.62
558.889	1906.62
559.657	1810.62
560.425	1703.62
561.193	1594.62
561.961	1539.62
562.729	1437.62
563.496	1351.62
564.264	1294.62
565.032	1218.62
565.799	1153.62
566.567	1098.62
567.334	1030.62
568.101	976.62
568.869	923.62
569.636	860.62
570.403	826.62
571.17	779.62
571.937	744.62
572.704	700.62
573.471	655.62
574.237	616.62
575.004	585.62
575.771	544.62
576.537	501.62
577.303	492.62
578.07	458.62
578.836	441.62
579.602	411.62
580.368	392.62
581.134	367.62
581.9	349.62
582.666	327.62
583.432	319.62
584.198	310.62
584.964	295.62
585.729	274.62
586.495	253.62
587.26	245.62
588.025	233.62
588.791	222.62
589.556	213.62
590.321	201.62
591.086	192.62
591.851	184.62
592.616	171.62
593.381	165.62
594.146	155.62
594.911	152.62
595.675	146.62
596.44	137.62
597.204	128.62
597.969	128.62
598.733	119.62
599.497	118.62
600.261	114.62
601.025	103.62
601.79	102.62
602.553	99.62
603.317	89.62
604.081	87.62
604.845	88.62
605.609	81.62
606.372	81.62
607.136	74.62
607.899	70.62
608.662	70.62
609.426	69.62
610.189	68.62
610.952	62.62
611.715	61.62
612.478	60.62
613.241	58.62
614.004	56.62
614.767	55.62
615.529	52.62
616.292	48.62
617.055	46.62
617.817	47.62
618.579	41.62
619.342	44.62
620.104	42.62
620.866	42.62
621.628	40.62
622.39	40.62
623.152	35.62
623.914	37.62
624.676	35.62
625.438	34.62
626.199	31.62
626.961	30.62
627.722	28.62
628.484	31.62
629.245	31.62
630.006	29.62
630.768	26.62
631.529	26.62
632.29	26.62
633.051	23.62
633.812	26.62
634.573	23.62
635.333	24.62
636.094	25.62
636.855	19.62
637.615	21.62
638.376	18.62
639.136	21.62
639.896	19.62
640.657	18.62
641.417	18.62
642.177	17.62
642.937	18.62
643.697	18.62
644.457	17.62
645.216	17.62
645.976	17.62
646.736	18.62
647.495	13.62
648.255	15.62
649.014	15.62
649.774	14.62
650.533	16.62
651.292	13.62
652.051	14.62
652.81	13.62
653.569	13.62
654.328	13.62
655.087	15.62
655.846	12.62
656.604	11.62
657.363	12.62
658.121	14.62
658.88	14.62
659.638	11.62
660.397	11.62
661.155	12.62
661.913	12.62
662.671	12.62
663.429	10.62
664.187	12.62
664.945	10.62
665.703	10.62
666.46	12.62
667.218	8.62
667.976	10.62
668.733	12.62
669.49	11.62
670.248	11.62
671.005	7.62
671.762	7.62
672.519	11.62
673.276	7.62
674.033	9.62
674.79	6.62
675.547	10.62
676.304	9.62
677.06	10.62
677.817	10.62
678.574	9.62
679.33	10.62
680.086	8.62
680.843	8.62
681.599	8.62
682.355	7.62
683.111	9.62
683.867	8.62
684.623	8.62
685.379	9.62
686.135	8.62
686.89	8.62
687.646	6.62
688.402	6.62
689.157	4.62
689.912	6.62
690.668	9.62
691.423	9.62
692.178	7.62
692.933	6.62
693.688	7.62
694.443	5.62
695.198	7.62
695.953	9.62
696.708	6.62
697.462	6.62
698.217	5.62
698.972	9.62
699.726	10.62
700.48	8.62
701.235	7.62
701.989	6.62
702.743	8.62
703.497	6.62
704.251	7.62
705.005	7.62
705.759	8.62
706.513	9.62
707.266	6.62
708.02	8.62
708.774	8.62
709.527	9.62
710.28	9.62
711.034	7.62
711.787	10.62
712.54	7.62
713.293	8.62
714.046	7.62
714.799	7.62
715.552	7.62
716.305	7.62
717.058	7.62
717.81	7.62
718.563	11.62
719.315	8.62
720.068	10.62
720.82	8.62
721.573	7.62
722.325	8.62
723.077	9.62
723.829	9.62
724.581	9.62
725.333	7.62
726.085	8.62
726.836	7.62
727.588	6.62
728.34	11.62
729.091	7.62
729.843	10.62
730.594	9.62
731.346	8.62
732.097	9.62
732.848	9.62
733.599	8.62
734.35	7.62
735.101	11.62
735.852	9.62
736.603	8.62
737.354	11.62
738.104	10.62
738.855	10.62
739.605	7.62
740.356	12.62
741.106	10.62
741.856	13.62
742.607	9.62
743.357	11.62
744.107	10.62
744.857	9.62
745.607	13.62
746.357	10.62
747.106	12.62
747.856	10.62
748.606	12.62
749.355	10.62
750.105	11.62
750.854	11.62
751.603	13.62
752.353	13.62
753.102	11.62
753.851	11.62
754.6	13.62
755.349	13.62
756.098	12.62
756.847	11.62
757.595	11.62
758.344	12.62
759.093	13.62
759.841	13.62
760.589	14.62
761.338	11.62
762.086	12.62
762.834	15.62
763.582	15.62
764.331	15.62
765.079	13.62
765.826	13.62
766.574	15.62
767.322	14.62
768.07	11.62
768.817	17.62
769.565	14.62
770.312	14.62
771.06	16.62
771.807	15.62
772.554	17.62
773.302	14.62
774.049	16.62
774.796	15.62
775.543	15.62
776.29	16.62
777.036	15.62
777.783	14.62
778.53	17.62
779.276	17.62
780.023	15.62
780.769	15.62
781.516	17.62
782.262	17.62
783.008	18.62
783.754	15.62
784.5	17.62
785.246	16.62
785.992	19.62
786.738	17.62
787.484	15.62
788.23	17.62
788.975	16.62
789.721	16.62
790.466	13.62
791.212	15.62
791.957	18.62
792.702	15.62
793.447	13.62
794.193	18.62
794.938	16.62
795.683	13.62
796.427	13.62
797.172	11.62
797.917	12.62
798.662	10.62
799.406	12.62
800.151	13.62
800.895	15.62
801.64	13.62
802.384	15.62
803.128	11.62
803.872	11.62
804.616	13.62
805.36	11.62
806.104	11.62
806.848	11.62
807.592	10.62
808.336	11.62
809.079	12.62
809.823	9.62
810.566	9.62
811.31	10.62
812.053	7.62
812.796	9.62
813.539	11.62
814.283	7.62
815.026	9.62
815.769	8.62
816.511	8.62
817.254	8.62
817.997	5.62
818.74	9.62
819.482	7.62
820.225	9.62
820.967	8.62
821.71	6.62
822.452	9.62
823.194	8.62
823.936	7.62
824.678	5.62
825.42	6.62
826.162	7.62
826.904	6.62
827.646	6.62
828.388	7.62
829.129	5.62
829.871	5.62
830.612	6.62
831.354	6.62
832.095	4.62
832.836	7.62
833.577	6.62
834.319	5.62
835.06	7.62
835.801	5.62
836.542	7.62
837.282	8.62
838.023	5.62
838.764	6.62
839.504	5.62
840.245	7.62
840.985	6.62
841.726	5.62
842.466	7.62
843.206	4.62
843.946	5.62
844.687	5.62
845.427	7.62
846.166	5.62
846.906	6.62
847.646	5.62
848.386	6.62
849.125	5.62
849.865	3.62
850.605	4.62
851.344	4.62
852.083	6.62
852.823	6.62
853.562	2.62
854.301	5.62
855.04	5.62
855.779	7.62
856.518	3.62
857.257	5.62
857.995	3.62
858.734	5.62
859.473	2.62
860.211	3.62
860.95	3.62
861.688	2.62
862.426	1.62
863.165	3.62
863.903	4.62
864.641	4.62
865.379	2.62
866.117	1.62
866.855	2.62
867.593	2.62
868.33	3.62
869.068	2.62
869.806	2.62
870.543	3.62
871.28	3.62
872.018	4.62
872.755	2.62
873.492	1.62
874.229	5.62
874.967	1.62
875.703	1.62
876.44	0.62
877.177	2.62
877.914	1.62
878.651	1.62
879.387	3.62
880.124	3.62
880.86	0.62
881.597	2.62
882.333	1.62
883.069	2.62
883.806	1.62
884.542	2.62
885.278	-0.38
886.014	2.62
886.749	-0.38
887.485	2.62
888.221	1.62
888.957	1.62
889.692	4.62
890.428	1.62
891.163	1.62
891.899	3.62
892.634	1.62
893.369	3.62
894.104	1.62
894.839	3.62
895.574	0.62
896.309	2.62
897.044	2.62
897.779	2.62
898.514	2.62
899.248	0.62
899.983	1.62
900.717	0.62
901.452	1.62
902.186	1.62
902.92	0.62
903.654	1.62
904.389	0.62
905.123	-0.38
905.857	1.62
906.59	0.62
907.324	1.62
908.058	1.62
908.792	1.62
909.525	1.62
910.259	0.62
910.992	2.62
911.726	3.62
912.459	1.62
913.192	-0.38
913.925	1.62
914.658	3.62
915.391	1.62
916.124	2.62
916.857	-0.38
917.59	1.62
918.323	1.62
919.055	-0.38
919.788	2.62
920.521	-0.38
921.253	0.62
921.985	-0.38
922.718	1.62
923.45	0.62
924.182	1.62
924.914	2.62
925.646	-0.38
926.378	1.62
927.11	2.62
927.841	2.62
928.573	1.62
929.305	1.62
930.036	1.62
930.768	1.62
931.499	2.62
932.23	1.62
932.962	1.62
933.693	2.62
934.424	-0.38
935.155	0.62
935.886	-0.38
936.617	2.62
937.348	0.62
938.078	2.62
938.809	1.62
939.54	0.62
940.27	1.62
941.001	1.62
941.731	1.62
942.461	0.62
943.191	-0.38
943.922	1.62
944.652	-1.38
945.382	3.62
946.112	-0.38
946.841	-0.38
947.571	0.62
948.301	-0.38
949.031	0.62
949.76	-0.38
950.49	2.62
951.219	-0.38
951.948	1.62
952.678	0.62
953.407	0.62
954.136	-0.38
954.865	0.62
955.594	1.62
956.323	2.62
957.052	0.62
957.78	2.62
958.509	0.62
959.238	0.62
959.966	-0.38
960.695	0.62
961.423	3.62
962.151	-0.38
962.88	1.62
963.608	-0.38
964.336	2.62
965.064	0.62
965.792	1.62
966.52	1.62
967.247	0.62
967.975	-0.38
968.703	-1.38
969.43	2.62
970.158	3.62
970.885	1.62
971.613	-0.38
972.34	0.62
973.067	0.62
973.794	1.62
974.521	1.62
975.248	0.62
975.975	-0.38
976.702	2.62
977.429	1.62
978.156	0.62
978.882	2.62
979.609	3.62
980.335	3.62
981.062	0.62
981.788	-0.38
982.514	2.62
983.24	0.62
983.967	-0.38
984.693	-0.38
985.419	-0.38
986.144	-0.38
986.87	-0.38
987.596	1.62
988.322	-2.38
989.047	3.62
989.773	-0.38
990.498	-0.38
991.224	3.62
991.949	0.62
992.674	2.62
993.399	-2.38
994.124	3.62
994.849	-1.38
995.574	3.62
996.299	-0.38
997.024	1.62
997.749	-0.38
998.473	0.62
999.198	-0.38
999.922	1.62
1000.647	1.62
1001.371	2.62
1002.095	-2.38
1002.82	0.62
1003.544	0.62
1004.268	5.62
1004.992	4.62
1005.716	6.62
1006.439	4.62
1007.163	3.62
1007.887	5.62
1008.611	0.62
1009.334	-0.38
1010.058	0.62
1010.781	-1.38
1011.504	3.62
1012.228	-1.38
1012.951	0.62
1013.674	-2.38
1014.397	-0.38
1015.12	0.62
