节点500_705_QEPB04081__651__20-55-10-822.txt的数据

Date: Wed Nov 12 20:55:10 CST 2025
User: PC
Spectrometer: QEPB0408
触发模式: 0
积分时间 (秒): 1.000000E-2
Scans to average: 1
启用暗噪声校正: true
启用非线性校正: false
滑动平均宽度: 0
X轴模式: Wavelengths
Number of Pixels in Spectrum: 1044
>>>>>Begin Spectral Data<<<<<
220.843	5.12
221.644	3.12
222.444	6.12
223.244	7.12
224.045	8.12
224.845	6.12
225.645	6.12
226.445	7.12
227.245	6.12
228.045	6.12
228.845	6.12
229.645	8.12
230.444	7.12
231.244	9.12
232.043	7.12
232.843	10.12
233.642	8.12
234.442	7.12
235.241	10.12
236.04	9.12
236.839	11.12
237.638	7.12
238.437	11.12
239.236	11.12
240.035	11.12
240.833	8.12
241.632	11.12
242.43	11.12
243.229	13.12
244.027	13.12
244.826	11.12
245.624	12.12
246.422	12.12
247.22	12.12
248.018	12.12
248.816	14.12
249.614	14.12
250.412	15.12
251.21	15.12
252.007	16.12
252.805	15.12
253.602	15.12
254.4	18.12
255.197	16.12
255.994	17.12
256.791	18.12
257.589	20.12
258.386	18.12
259.183	23.12
259.979	21.12
260.776	20.12
261.573	19.12
262.37	22.12
263.166	21.12
263.963	22.12
264.759	21.12
265.556	27.12
266.352	25.12
267.148	24.12
267.944	25.12
268.74	27.12
269.536	25.12
270.332	27.12
271.128	25.12
271.924	26.12
272.719	28.12
273.515	30.12
274.311	29.12
275.106	31.12
275.901	30.12
276.697	30.12
277.492	27.12
278.287	31.12
279.082	29.12
279.877	31.12
280.672	30.12
281.467	29.12
282.262	31.12
283.056	31.12
283.851	31.12
284.646	29.12
285.44	30.12
286.234	34.12
287.029	28.12
287.823	32.12
288.617	29.12
289.411	31.12
290.205	29.12
290.999	31.12
291.793	30.12
292.587	27.12
293.381	34.12
294.174	29.12
294.968	28.12
295.761	27.12
296.555	26.12
297.348	22.12
298.141	23.12
298.935	29.12
299.728	31.12
300.521	24.12
301.314	25.12
302.107	25.12
302.899	21.12
303.692	21.12
304.485	22.12
305.277	23.12
306.07	21.12
306.862	25.12
307.655	20.12
308.447	18.12
309.239	21.12
310.031	21.12
310.823	20.12
311.615	19.12
312.407	19.12
313.199	18.12
313.991	17.12
314.783	18.12
315.574	15.12
316.366	18.12
317.157	18.12
317.949	16.12
318.74	17.12
319.531	15.12
320.322	15.12
321.113	14.12
321.904	15.12
322.695	15.12
323.486	14.12
324.277	14.12
325.068	15.12
325.858	10.12
326.649	13.12
327.439	15.12
328.23	11.12
329.02	11.12
329.81	14.12
330.6	13.12
331.391	13.12
332.181	12.12
332.971	14.12
333.76	11.12
334.55	9.12
335.34	12.12
336.13	15.12
336.919	12.12
337.709	15.12
338.498	13.12
339.287	10.12
340.077	11.12
340.866	12.12
341.655	11.12
342.444	12.12
343.233	13.12
344.022	13.12
344.811	14.12
345.6	9.12
346.388	13.12
347.177	10.12
347.965	14.12
348.754	11.12
349.542	9.12
350.33	12.12
351.119	11.12
351.907	12.12
352.695	11.12
353.483	11.12
354.271	10.12
355.059	9.12
355.846	13.12
356.634	11.12
357.422	10.12
358.209	11.12
358.997	10.12
359.784	10.12
360.571	10.12
361.359	13.12
362.146	7.12
362.933	10.12
363.72	9.12
364.507	12.12
365.294	8.12
366.081	10.12
366.867	11.12
367.654	9.12
368.44	6.12
369.227	11.12
370.013	9.12
370.8	9.12
371.586	9.12
372.372	10.12
373.158	8.12
373.944	9.12
374.73	8.12
375.516	11.12
376.302	11.12
377.088	9.12
377.873	8.12
378.659	10.12
379.445	11.12
380.23	10.12
381.015	10.12
381.801	11.12
382.586	11.12
383.371	10.12
384.156	11.12
384.941	11.12
385.726	11.12
386.511	11.12
387.296	10.12
388.08	11.12
388.865	9.12
389.649	13.12
390.434	10.12
391.218	13.12
392.003	11.12
392.787	9.12
393.571	11.12
394.355	12.12
395.139	12.12
395.923	11.12
396.707	13.12
397.491	11.12
398.274	13.12
399.058	12.12
399.842	10.12
400.625	13.12
401.408	14.12
402.192	15.12
402.975	15.12
403.758	15.12
404.541	13.12
405.324	13.12
406.107	11.12
406.89	14.12
407.673	15.12
408.456	15.12
409.238	14.12
410.021	18.12
410.803	16.12
411.586	15.12
412.368	17.12
413.151	16.12
413.933	16.12
414.715	16.12
415.497	18.12
416.279	17.12
417.061	21.12
417.843	17.12
418.624	19.12
419.406	19.12
420.188	21.12
420.969	18.12
421.751	23.12
422.532	23.12
423.313	23.12
424.095	23.12
424.876	25.12
425.657	21.12
426.438	25.12
427.219	27.12
428	24.12
428.78	30.12
429.561	29.12
430.342	28.12
431.122	34.12
431.903	30.12
432.683	34.12
433.464	35.12
434.244	39.12
435.024	40.12
435.804	40.12
436.584	46.12
437.364	48.12
438.144	50.12
438.924	55.12
439.704	57.12
440.483	58.12
441.263	64.12
442.042	66.12
442.822	69.12
443.601	81.12
444.38	84.12
445.16	94.12
445.939	100.12
446.718	112.12
447.497	122.12
448.276	130.12
449.054	139.12
449.833	155.12
450.612	171.12
451.391	189.12
452.169	204.12
452.948	229.12
453.726	255.12
454.504	287.12
455.282	325.12
456.061	356.12
456.839	392.12
457.617	440.12
458.395	486.12
459.172	550.12
459.95	604.12
460.728	684.12
461.506	750.12
462.283	847.12
463.061	928.12
463.838	1016.12
464.615	1145.12
465.393	1265.12
466.17	1405.12
466.947	1547.12
467.724	1700.12
468.501	1892.12
469.278	2078.12
470.055	2292.12
470.831	2501.12
471.608	2763.12
472.385	3024.12
473.161	3315.12
473.938	3649.12
474.714	3962.12
475.49	4314.12
476.266	4728.12
477.043	5147.12
477.819	5588.12
478.595	6067.12
479.371	6606.12
480.146	7163.12
480.922	7789.12
481.698	8413.12
482.473	9129.12
483.249	9847.12
484.024	10687.12
484.8	11478.12
485.575	12420.12
486.35	13365.12
487.126	14467.12
487.901	15497.12
488.676	16634.12
489.451	17950.12
490.225	19235.12
491	20575.12
491.775	21885.12
492.55	23382.12
493.324	24834.12
494.099	26505.12
494.873	28013.12
495.647	29560.12
496.422	31199.12
497.196	32824.12
497.97	34297.12
498.744	35841.12
499.518	37432.12
500.292	38672.12
501.066	39708.12
501.839	40682.12
502.613	41707.12
503.387	42517.12
504.16	43130.12
504.934	43566.12
505.707	43715.12
506.48	43596.12
507.253	43653.12
508.027	43304.12
508.8	42713.12
509.573	42020.12
510.346	41253.12
511.118	40447.12
511.891	39492.12
512.664	38271.12
513.437	37033.12
514.209	35795.12
514.982	34653.12
515.754	33279.12
516.526	32046.12
517.298	30775.12
518.071	29634.12
518.843	28490.12
519.615	27394.12
520.387	26327.12
521.159	25283.12
521.93	24394.12
522.702	23311.12
523.474	22335.12
524.245	21406.12
525.017	20524.12
525.788	19685.12
526.56	18922.12
527.331	18082.12
528.102	17216.12
528.873	16411.12
529.644	15655.12
530.415	15000.12
531.186	14287.12
531.957	13542.12
532.728	12902.12
533.498	12273.12
534.269	11651.12
535.039	11030.12
535.81	10406.12
536.58	9882.12
537.351	9339.12
538.121	8904.12
538.891	8436.12
539.661	7986.12
540.431	7498.12
541.201	7158.12
541.971	6758.12
542.741	6413.12
543.51	6102.12
544.28	5795.12
545.05	5529.12
545.819	5289.12
546.588	5019.12
547.358	4783.12
548.127	4533.12
548.896	4316.12
549.665	4079.12
550.434	3913.12
551.203	3717.12
551.972	3517.12
552.741	3343.12
553.51	3149.12
554.278	2957.12
555.047	2806.12
555.815	2669.12
556.584	2518.12
557.352	2376.12
558.121	2245.12
558.889	2134.12
559.657	2003.12
560.425	1903.12
561.193	1811.12
561.961	1719.12
562.729	1607.12
563.496	1521.12
564.264	1454.12
565.032	1345.12
565.799	1296.12
566.567	1222.12
567.334	1165.12
568.101	1105.12
568.869	1030.12
569.636	979.12
570.403	919.12
571.17	868.12
571.937	819.12
572.704	776.12
573.471	735.12
574.237	694.12
575.004	650.12
575.771	620.12
576.537	576.12
577.303	548.12
578.07	518.12
578.836	494.12
579.602	465.12
580.368	440.12
581.134	420.12
581.9	402.12
582.666	385.12
583.432	358.12
584.198	341.12
584.964	322.12
585.729	303.12
586.495	289.12
587.26	276.12
588.025	259.12
588.791	245.12
589.556	228.12
590.321	223.12
591.086	205.12
591.851	203.12
592.616	189.12
593.381	183.12
594.146	170.12
594.911	167.12
595.675	156.12
596.44	147.12
597.204	141.12
597.969	141.12
598.733	130.12
599.497	131.12
600.261	117.12
601.025	117.12
601.79	109.12
602.553	109.12
603.317	105.12
604.081	99.12
604.845	94.12
605.609	93.12
606.372	90.12
607.136	82.12
607.899	82.12
608.662	74.12
609.426	75.12
610.189	73.12
610.952	68.12
611.715	64.12
612.478	66.12
613.241	59.12
614.004	58.12
614.767	59.12
615.529	56.12
616.292	54.12
617.055	51.12
617.817	52.12
618.579	49.12
619.342	48.12
620.104	45.12
620.866	44.12
621.628	41.12
622.39	37.12
623.152	40.12
623.914	37.12
624.676	37.12
625.438	33.12
626.199	39.12
626.961	34.12
627.722	33.12
628.484	33.12
629.245	29.12
630.006	33.12
630.768	27.12
631.529	31.12
632.29	27.12
633.051	26.12
633.812	26.12
634.573	21.12
635.333	23.12
636.094	26.12
636.855	22.12
637.615	21.12
638.376	21.12
639.136	20.12
639.896	21.12
640.657	21.12
641.417	18.12
642.177	19.12
642.937	19.12
643.697	17.12
644.457	19.12
645.216	18.12
645.976	15.12
646.736	18.12
647.495	17.12
648.255	14.12
649.014	13.12
649.774	16.12
650.533	14.12
651.292	14.12
652.051	17.12
652.81	14.12
653.569	14.12
654.328	14.12
655.087	15.12
655.846	13.12
656.604	11.12
657.363	11.12
658.121	14.12
658.88	11.12
659.638	12.12
660.397	13.12
661.155	11.12
661.913	11.12
662.671	11.12
663.429	9.12
664.187	13.12
664.945	9.12
665.703	10.12
666.46	11.12
667.218	9.12
667.976	11.12
668.733	10.12
669.49	10.12
670.248	9.12
671.005	9.12
671.762	11.12
672.519	9.12
673.276	10.12
674.033	9.12
674.79	9.12
675.547	10.12
676.304	7.12
677.06	10.12
677.817	7.12
678.574	7.12
679.33	8.12
680.086	7.12
680.843	8.12
681.599	7.12
682.355	6.12
683.111	11.12
683.867	7.12
684.623	10.12
685.379	8.12
686.135	7.12
686.89	5.12
687.646	8.12
688.402	7.12
689.157	6.12
689.912	8.12
690.668	9.12
691.423	7.12
692.178	9.12
692.933	8.12
693.688	10.12
694.443	6.12
695.198	7.12
695.953	7.12
696.708	9.12
697.462	6.12
698.217	9.12
698.972	7.12
699.726	9.12
700.48	6.12
701.235	9.12
701.989	7.12
702.743	10.12
703.497	9.12
704.251	8.12
705.005	8.12
705.759	7.12
706.513	8.12
707.266	7.12
708.02	9.12
708.774	8.12
709.527	5.12
710.28	8.12
711.034	7.12
711.787	8.12
712.54	9.12
713.293	9.12
714.046	7.12
714.799	9.12
715.552	9.12
716.305	8.12
717.058	7.12
717.81	9.12
718.563	9.12
719.315	7.12
720.068	7.12
720.82	7.12
721.573	10.12
722.325	9.12
723.077	5.12
723.829	9.12
724.581	8.12
725.333	7.12
726.085	8.12
726.836	6.12
727.588	10.12
728.34	9.12
729.091	8.12
729.843	9.12
730.594	10.12
731.346	9.12
732.097	7.12
732.848	9.12
733.599	10.12
734.35	9.12
735.101	10.12
735.852	9.12
736.603	9.12
737.354	13.12
738.104	9.12
738.855	10.12
739.605	9.12
740.356	11.12
741.106	8.12
741.856	6.12
742.607	10.12
743.357	10.12
744.107	10.12
744.857	12.12
745.607	12.12
746.357	11.12
747.106	8.12
747.856	11.12
748.606	9.12
749.355	9.12
750.105	9.12
750.854	9.12
751.603	10.12
752.353	11.12
753.102	10.12
753.851	8.12
754.6	11.12
755.349	9.12
756.098	10.12
756.847	12.12
757.595	9.12
758.344	12.12
759.093	10.12
759.841	11.12
760.589	9.12
761.338	9.12
762.086	9.12
762.834	12.12
763.582	9.12
764.331	13.12
765.079	13.12
765.826	8.12
766.574	9.12
767.322	10.12
768.07	10.12
768.817	14.12
769.565	12.12
770.312	14.12
771.06	14.12
771.807	13.12
772.554	11.12
773.302	15.12
774.049	14.12
774.796	12.12
775.543	18.12
776.29	13.12
777.036	13.12
777.783	14.12
778.53	14.12
779.276	15.12
780.023	14.12
780.769	16.12
781.516	16.12
782.262	13.12
783.008	14.12
783.754	14.12
784.5	16.12
785.246	14.12
785.992	14.12
786.738	15.12
787.484	16.12
788.23	15.12
788.975	15.12
789.721	14.12
790.466	11.12
791.212	12.12
791.957	13.12
792.702	13.12
793.447	14.12
794.193	13.12
794.938	14.12
795.683	14.12
796.427	11.12
797.172	12.12
797.917	16.12
798.662	12.12
799.406	9.12
800.151	14.12
800.895	13.12
801.64	13.12
802.384	10.12
803.128	10.12
803.872	12.12
804.616	10.12
805.36	8.12
806.104	11.12
806.848	10.12
807.592	11.12
808.336	10.12
809.079	13.12
809.823	10.12
810.566	11.12
811.31	10.12
812.053	9.12
812.796	9.12
813.539	9.12
814.283	8.12
815.026	9.12
815.769	9.12
816.511	10.12
817.254	5.12
817.997	10.12
818.74	7.12
819.482	9.12
820.225	6.12
820.967	9.12
821.71	6.12
822.452	5.12
823.194	8.12
823.936	8.12
824.678	8.12
825.42	7.12
826.162	6.12
826.904	8.12
827.646	8.12
828.388	9.12
829.129	8.12
829.871	9.12
830.612	7.12
831.354	9.12
832.095	5.12
832.836	6.12
833.577	9.12
834.319	4.12
835.06	6.12
835.801	6.12
836.542	6.12
837.282	6.12
838.023	6.12
838.764	6.12
839.504	5.12
840.245	5.12
840.985	4.12
841.726	4.12
842.466	5.12
843.206	5.12
843.946	6.12
844.687	7.12
845.427	6.12
846.166	6.12
846.906	4.12
847.646	6.12
848.386	5.12
849.125	3.12
849.865	6.12
850.605	3.12
851.344	5.12
852.083	6.12
852.823	5.12
853.562	3.12
854.301	4.12
855.04	4.12
855.779	2.12
856.518	5.12
857.257	4.12
857.995	4.12
858.734	5.12
859.473	5.12
860.211	4.12
860.95	3.12
861.688	3.12
862.426	4.12
863.165	3.12
863.903	5.12
864.641	3.12
865.379	2.12
866.117	3.12
866.855	3.12
867.593	3.12
868.33	3.12
869.068	4.12
869.806	3.12
870.543	2.12
871.28	3.12
872.018	4.12
872.755	2.12
873.492	1.12
874.229	3.12
874.967	2.12
875.703	4.12
876.44	3.12
877.177	4.12
877.914	4.12
878.651	3.12
879.387	1.12
880.124	1.12
880.86	1.12
881.597	3.12
882.333	1.12
883.069	4.12
883.806	3.12
884.542	4.12
885.278	1.12
886.014	1.12
886.749	0.12
887.485	2.12
888.221	1.12
888.957	2.12
889.692	2.12
890.428	2.12
891.163	2.12
891.899	1.12
892.634	2.12
893.369	3.12
894.104	2.12
894.839	2.12
895.574	2.12
896.309	0.12
897.044	3.12
897.779	2.12
898.514	1.12
899.248	2.12
899.983	1.12
900.717	0.12
901.452	1.12
902.186	-0.88
902.92	0.12
903.654	0.12
904.389	0.12
905.123	-0.88
905.857	1.12
906.59	0.12
907.324	1.12
908.058	3.12
908.792	2.12
909.525	1.12
910.259	1.12
910.992	-0.88
911.726	0.12
912.459	1.12
913.192	1.12
913.925	0.12
914.658	-0.88
915.391	-0.88
916.124	1.12
916.857	0.12
917.59	-0.88
918.323	1.12
919.055	1.12
919.788	1.12
920.521	0.12
921.253	3.12
921.985	3.12
922.718	0.12
923.45	1.12
924.182	1.12
924.914	1.12
925.646	2.12
926.378	-0.88
927.11	-0.88
927.841	1.12
928.573	1.12
929.305	-0.88
930.036	0.12
930.768	1.12
931.499	-0.88
932.23	0.12
932.962	1.12
933.693	1.12
934.424	-0.88
935.155	0.12
935.886	-0.88
936.617	-2.88
937.348	2.12
938.078	2.12
938.809	2.12
939.54	1.12
940.27	0.12
941.001	1.12
941.731	-1.88
942.461	3.12
943.191	1.12
943.922	0.12
944.652	2.12
945.382	1.12
946.112	2.12
946.841	1.12
947.571	0.12
948.301	1.12
949.031	1.12
949.76	2.12
950.49	-0.88
951.219	0.12
951.948	-2.88
952.678	1.12
953.407	1.12
954.136	1.12
954.865	1.12
955.594	1.12
956.323	2.12
957.052	1.12
957.78	0.12
958.509	-0.88
959.238	-0.88
959.966	-0.88
960.695	3.12
961.423	1.12
962.151	1.12
962.88	-0.88
963.608	0.12
964.336	1.12
965.064	1.12
965.792	2.12
966.52	1.12
967.247	0.12
967.975	-1.88
968.703	2.12
969.43	1.12
970.158	1.12
970.885	1.12
971.613	0.12
972.34	1.12
973.067	-0.88
973.794	1.12
974.521	1.12
975.248	-0.88
975.975	-0.88
976.702	1.12
977.429	0.12
978.156	-1.88
978.882	1.12
979.609	-0.88
980.335	-0.88
981.062	3.12
981.788	1.12
982.514	0.12
983.24	0.12
983.967	-0.88
984.693	1.12
985.419	0.12
986.144	1.12
986.87	-0.88
987.596	0.12
988.322	1.12
989.047	1.12
989.773	0.12
990.498	-1.88
991.224	0.12
991.949	1.12
992.674	0.12
993.399	-0.88
994.124	0.12
994.849	1.12
995.574	0.12
996.299	0.12
997.024	-0.88
997.749	0.12
998.473	0.12
999.198	-0.88
999.922	-0.88
1000.647	1.12
1001.371	2.12
1002.095	-0.88
1002.82	-0.88
1003.544	-1.88
1004.268	6.12
1004.992	3.12
1005.716	4.12
1006.439	4.12
1007.163	4.12
1007.887	4.12
1008.611	1.12
1009.334	1.12
1010.058	0.12
1010.781	-0.88
1011.504	-0.88
1012.228	-0.88
1012.951	2.12
1013.674	1.12
1014.397	-0.88
1015.12	-0.88
