节点500_705_QEPB04081__595__20-54-22-815.txt的数据

Date: Wed Nov 12 20:54:22 CST 2025
User: PC
Spectrometer: QEPB0408
触发模式: 0
积分时间 (秒): 1.000000E-2
Scans to average: 1
启用暗噪声校正: true
启用非线性校正: false
滑动平均宽度: 0
X轴模式: Wavelengths
Number of Pixels in Spectrum: 1044
>>>>>Begin Spectral Data<<<<<
220.843	6
221.644	5
222.444	5
223.244	5
224.045	8
224.845	7
225.645	7
226.445	7
227.245	8
228.045	6
228.845	8
229.645	5
230.444	8
231.244	9
232.043	8
232.843	8
233.642	11
234.442	9
235.241	9
236.04	10
236.839	10
237.638	11
238.437	9
239.236	9
240.035	11
240.833	10
241.632	12
242.43	13
243.229	11
244.027	12
244.826	13
245.624	12
246.422	14
247.22	11
248.018	14
248.816	13
249.614	14
250.412	15
251.21	13
252.007	15
252.805	17
253.602	17
254.4	18
255.197	16
255.994	19
256.791	15
257.589	17
258.386	19
259.183	19
259.979	19
260.776	19
261.573	21
262.37	21
263.166	26
263.963	22
264.759	25
265.556	23
266.352	21
267.148	25
267.944	23
268.74	27
269.536	27
270.332	27
271.128	27
271.924	25
272.719	28
273.515	31
274.311	31
275.106	29
275.901	32
276.697	31
277.492	30
278.287	34
279.082	31
279.877	30
280.672	31
281.467	33
282.262	34
283.056	34
283.851	34
284.646	33
285.44	32
286.234	33
287.029	34
287.823	32
288.617	31
289.411	30
290.205	34
290.999	25
291.793	31
292.587	30
293.381	27
294.174	27
294.968	28
295.761	27
296.555	25
297.348	26
298.141	27
298.935	28
299.728	25
300.521	25
301.314	22
302.107	25
302.899	25
303.692	23
304.485	24
305.277	22
306.07	23
306.862	24
307.655	19
308.447	21
309.239	20
310.031	24
310.823	21
311.615	15
312.407	19
313.199	15
313.991	17
314.783	15
315.574	15
316.366	15
317.157	16
317.949	14
318.74	16
319.531	13
320.322	14
321.113	15
321.904	14
322.695	15
323.486	13
324.277	12
325.068	12
325.858	14
326.649	13
327.439	11
328.23	12
329.02	11
329.81	13
330.6	10
331.391	15
332.181	13
332.971	12
333.76	9
334.55	11
335.34	13
336.13	14
336.919	11
337.709	14
338.498	11
339.287	11
340.077	12
340.866	10
341.655	13
342.444	11
343.233	11
344.022	8
344.811	11
345.6	10
346.388	15
347.177	11
347.965	14
348.754	11
349.542	13
350.33	9
351.119	12
351.907	11
352.695	9
353.483	10
354.271	11
355.059	10
355.846	10
356.634	9
357.422	10
358.209	11
358.997	9
359.784	11
360.571	11
361.359	9
362.146	9
362.933	8
363.72	8
364.507	11
365.294	10
366.081	10
366.867	11
367.654	11
368.44	8
369.227	10
370.013	9
370.8	11
371.586	11
372.372	11
373.158	9
373.944	10
374.73	9
375.516	9
376.302	8
377.088	12
377.873	10
378.659	12
379.445	9
380.23	11
381.015	11
381.801	9
382.586	11
383.371	9
384.156	13
384.941	13
385.726	9
386.511	11
387.296	10
388.08	11
388.865	11
389.649	12
390.434	13
391.218	10
392.003	11
392.787	10
393.571	11
394.355	13
395.139	13
395.923	13
396.707	14
397.491	12
398.274	11
399.058	12
399.842	13
400.625	15
401.408	12
402.192	14
402.975	13
403.758	14
404.541	14
405.324	14
406.107	12
406.89	15
407.673	15
408.456	14
409.238	17
410.021	15
410.803	16
411.586	15
412.368	18
413.151	17
413.933	17
414.715	18
415.497	16
416.279	19
417.061	17
417.843	20
418.624	21
419.406	20
420.188	22
420.969	19
421.751	23
422.532	24
423.313	23
424.095	21
424.876	23
425.657	21
426.438	24
427.219	27
428	27
428.78	30
429.561	27
430.342	30
431.122	32
431.903	29
432.683	35
433.464	37
434.244	37
435.024	39
435.804	43
436.584	43
437.364	47
438.144	51
438.924	53
439.704	54
440.483	60
441.263	59
442.042	65
442.822	73
443.601	78
444.38	82
445.16	93
445.939	100
446.718	108
447.497	115
448.276	132
449.054	141
449.833	155
450.612	174
451.391	189
452.169	211
452.948	232
453.726	263
454.504	287
455.282	320
456.061	359
456.839	399
457.617	446
458.395	485
459.172	556
459.95	597
460.728	679
461.506	745
462.283	836
463.061	934
463.838	1023
464.615	1126
465.393	1254
466.17	1393
466.947	1541
467.724	1704
468.501	1884
469.278	2089
470.055	2261
470.831	2502
471.608	2751
472.385	3018
473.161	3320
473.938	3625
474.714	4004
475.49	4309
476.266	4723
477.043	5137
477.819	5601
478.595	6051
479.371	6594
480.146	7161
480.922	7791
481.698	8423
482.473	9123
483.249	9903
484.024	10702
484.8	11553
485.575	12412
486.35	13417
487.126	14483
487.901	15603
488.676	16714
489.451	17908
490.225	19314
491	20625
491.775	22033
492.55	23525
493.324	25021
494.099	26609
494.873	28234
495.647	29679
496.422	31313
497.196	32934
497.97	34446
498.744	35918
499.518	37453
500.292	38745
501.066	39929
501.839	40803
502.613	41772
503.387	42666
504.16	43171
504.934	43549
505.707	43859
506.48	43777
507.253	43575
508.027	43322
508.8	42760
509.573	42053
510.346	41247
511.118	40507
511.891	39544
512.664	38215
513.437	36984
514.209	35768
514.982	34544
515.754	33233
516.526	32020
517.298	30812
518.071	29640
518.843	28530
519.615	27363
520.387	26269
521.159	25288
521.93	24254
522.702	23288
523.474	22303
524.245	21420
525.017	20536
525.788	19633
526.56	18937
527.331	18132
528.102	17225
528.873	16414
529.644	15621
530.415	14973
531.186	14218
531.957	13514
532.728	12871
533.498	12233
534.269	11623
535.039	11037
535.81	10399
536.58	9876
537.351	9361
538.121	8840
538.891	8373
539.661	7941
540.431	7535
541.201	7160
541.971	6781
542.741	6415
543.51	6052
544.28	5761
545.05	5500
545.819	5254
546.588	5043
547.358	4764
548.127	4538
548.896	4315
549.665	4095
550.434	3883
551.203	3693
551.972	3519
552.741	3325
553.51	3133
554.278	2976
555.047	2796
555.815	2647
556.584	2502
557.352	2372
558.121	2257
558.889	2111
559.657	2024
560.425	1921
561.193	1786
561.961	1711
562.729	1594
563.496	1517
564.264	1447
565.032	1369
565.799	1282
566.567	1215
567.334	1150
568.101	1085
568.869	1042
569.636	970
570.403	917
571.17	860
571.937	814
572.704	766
573.471	736
574.237	691
575.004	644
575.771	603
576.537	571
577.303	549
578.07	514
578.836	489
579.602	461
580.368	440
581.134	423
581.9	394
582.666	373
583.432	358
584.198	338
584.964	319
585.729	307
586.495	288
587.26	273
588.025	253
588.791	241
589.556	226
590.321	224
591.086	204
591.851	200
592.616	194
593.381	179
594.146	170
594.911	167
595.675	155
596.44	152
597.204	140
597.969	136
598.733	138
599.497	122
600.261	118
601.025	117
601.79	111
602.553	104
603.317	99
604.081	103
604.845	94
605.609	90
606.372	85
607.136	84
607.899	78
608.662	75
609.426	77
610.189	73
610.952	72
611.715	66
612.478	60
613.241	61
614.004	59
614.767	57
615.529	55
616.292	51
617.055	50
617.817	51
618.579	50
619.342	51
620.104	46
620.866	44
621.628	42
622.39	40
623.152	38
623.914	38
624.676	40
625.438	35
626.199	32
626.961	35
627.722	31
628.484	33
629.245	27
630.006	30
630.768	27
631.529	25
632.29	27
633.051	25
633.812	26
634.573	27
635.333	25
636.094	22
636.855	20
637.615	24
638.376	23
639.136	19
639.896	22
640.657	18
641.417	20
642.177	18
642.937	20
643.697	19
644.457	18
645.216	16
645.976	15
646.736	19
647.495	17
648.255	16
649.014	16
649.774	13
650.533	13
651.292	15
652.051	16
652.81	14
653.569	13
654.328	16
655.087	14
655.846	12
656.604	13
657.363	12
658.121	12
658.88	12
659.638	13
660.397	13
661.155	13
661.913	12
662.671	9
663.429	11
664.187	9
664.945	11
665.703	10
666.46	9
667.218	10
667.976	11
668.733	10
669.49	10
670.248	9
671.005	10
671.762	9
672.519	9
673.276	11
674.033	10
674.79	8
675.547	11
676.304	7
677.06	7
677.817	9
678.574	7
679.33	10
680.086	9
680.843	8
681.599	10
682.355	9
683.111	6
683.867	7
684.623	9
685.379	8
686.135	9
686.89	9
687.646	5
688.402	8
689.157	7
689.912	8
690.668	7
691.423	7
692.178	5
692.933	7
693.688	7
694.443	5
695.198	8
695.953	10
696.708	8
697.462	9
698.217	8
698.972	7
699.726	10
700.48	7
701.235	6
701.989	7
702.743	9
703.497	9
704.251	9
705.005	10
705.759	8
706.513	10
707.266	7
708.02	6
708.774	8
709.527	7
710.28	9
711.034	7
711.787	7
712.54	7
713.293	9
714.046	5
714.799	8
715.552	6
716.305	6
717.058	8
717.81	8
718.563	6
719.315	10
720.068	7
720.82	9
721.573	9
722.325	8
723.077	9
723.829	7
724.581	9
725.333	5
726.085	10
726.836	10
727.588	7
728.34	8
729.091	8
729.843	9
730.594	7
731.346	9
732.097	6
732.848	7
733.599	8
734.35	9
735.101	10
735.852	7
736.603	8
737.354	8
738.104	9
738.855	10
739.605	8
740.356	9
741.106	12
741.856	12
742.607	8
743.357	9
744.107	13
744.857	10
745.607	10
746.357	9
747.106	7
747.856	10
748.606	11
749.355	10
750.105	12
750.854	11
751.603	10
752.353	9
753.102	11
753.851	11
754.6	10
755.349	12
756.098	12
756.847	13
757.595	11
758.344	12
759.093	11
759.841	13
760.589	9
761.338	11
762.086	11
762.834	13
763.582	11
764.331	13
765.079	11
765.826	12
766.574	15
767.322	15
768.07	12
768.817	12
769.565	15
770.312	13
771.06	13
771.807	15
772.554	15
773.302	15
774.049	14
774.796	14
775.543	12
776.29	15
777.036	15
777.783	16
778.53	16
779.276	14
780.023	14
780.769	13
781.516	14
782.262	16
783.008	14
783.754	15
784.5	14
785.246	14
785.992	14
786.738	15
787.484	18
788.23	13
788.975	16
789.721	15
790.466	15
791.212	15
791.957	13
792.702	13
793.447	13
794.193	14
794.938	14
795.683	16
796.427	13
797.172	15
797.917	11
798.662	12
799.406	14
800.151	15
800.895	11
801.64	12
802.384	8
803.128	11
803.872	10
804.616	15
805.36	10
806.104	12
806.848	10
807.592	11
808.336	11
809.079	11
809.823	10
810.566	8
811.31	11
812.053	11
812.796	8
813.539	10
814.283	7
815.026	10
815.769	8
816.511	8
817.254	7
817.997	7
818.74	8
819.482	9
820.225	7
820.967	8
821.71	7
822.452	8
823.194	8
823.936	9
824.678	9
825.42	6
826.162	6
826.904	8
827.646	8
828.388	10
829.129	6
829.871	7
830.612	5
831.354	7
832.095	6
832.836	7
833.577	3
834.319	5
835.06	7
835.801	5
836.542	9
837.282	6
838.023	6
838.764	8
839.504	7
840.245	5
840.985	7
841.726	7
842.466	5
843.206	7
843.946	5
844.687	7
845.427	5
846.166	5
846.906	7
847.646	5
848.386	5
849.125	3
849.865	5
850.605	7
851.344	6
852.083	6
852.823	3
853.562	5
854.301	5
855.04	3
855.779	5
856.518	6
857.257	6
857.995	5
858.734	3
859.473	3
860.211	2
860.95	3
861.688	3
862.426	3
863.165	2
863.903	3
864.641	5
865.379	4
866.117	4
866.855	1
867.593	2
868.33	4
869.068	4
869.806	1
870.543	2
871.28	3
872.018	2
872.755	2
873.492	4
874.229	2
874.967	3
875.703	0
876.44	1
877.177	3
877.914	0
878.651	3
879.387	-1
880.124	5
880.86	3
881.597	2
882.333	3
883.069	1
883.806	4
884.542	3
885.278	2
886.014	2
886.749	3
887.485	1
888.221	2
888.957	3
889.692	1
890.428	2
891.163	1
891.899	1
892.634	4
893.369	2
894.104	0
894.839	1
895.574	1
896.309	1
897.044	-1
897.779	3
898.514	3
899.248	2
899.983	3
900.717	0
901.452	2
902.186	3
902.92	1
903.654	1
904.389	1
905.123	1
905.857	0
906.59	3
907.324	-1
908.058	2
908.792	1
909.525	0
910.259	1
910.992	1
911.726	3
912.459	1
913.192	-1
913.925	-1
914.658	1
915.391	2
916.124	1
916.857	1
917.59	0
918.323	0
919.055	2
919.788	0
920.521	2
921.253	0
921.985	2
922.718	1
923.45	-1
924.182	3
924.914	-1
925.646	1
926.378	2
927.11	1
927.841	1
928.573	-1
929.305	-1
930.036	1
930.768	1
931.499	1
932.23	-1
932.962	2
933.693	0
934.424	0
935.155	0
935.886	-1
936.617	2
937.348	-2
938.078	1
938.809	1
939.54	1
940.27	0
941.001	-2
941.731	0
942.461	2
943.191	1
943.922	3
944.652	1
945.382	0
946.112	-1
946.841	2
947.571	-3
948.301	0
949.031	0
949.76	0
950.49	1
951.219	0
951.948	1
952.678	0
953.407	0
954.136	-1
954.865	0
955.594	1
956.323	-1
957.052	2
957.78	1
958.509	1
959.238	0
959.966	3
960.695	2
961.423	-1
962.151	-1
962.88	0
963.608	0
964.336	1
965.064	2
965.792	3
966.52	1
967.247	-1
967.975	0
968.703	0
969.43	1
970.158	-1
970.885	3
971.613	3
972.34	1
973.067	2
973.794	1
974.521	2
975.248	-1
975.975	-2
976.702	0
977.429	0
978.156	1
978.882	-1
979.609	1
980.335	0
981.062	1
981.788	0
982.514	0
983.24	2
983.967	-1
984.693	1
985.419	0
986.144	-1
986.87	0
987.596	1
988.322	-1
989.047	1
989.773	-1
990.498	2
991.224	-3
991.949	0
992.674	-2
993.399	-1
994.124	1
994.849	-2
995.574	-1
996.299	-1
997.024	3
997.749	1
998.473	-1
999.198	-1
999.922	0
1000.647	0
1001.371	5
1002.095	-2
1002.82	-1
1003.544	-3
1004.268	6
1004.992	2
1005.716	7
1006.439	4
1007.163	5
1007.887	5
1008.611	2
1009.334	0
1010.058	0
1010.781	-1
1011.504	0
1012.228	-2
1012.951	2
1013.674	-2
1014.397	0
1015.12	1
