节点500_705_QEPB04081__52__20-46-45-294.txt的数据

Date: Wed Nov 12 20:46:45 CST 2025
User: PC
Spectrometer: QEPB0408
触发模式: 0
积分时间 (秒): 1.000000E-2
Scans to average: 1
启用暗噪声校正: true
启用非线性校正: false
滑动平均宽度: 0
X轴模式: Wavelengths
Number of Pixels in Spectrum: 1044
>>>>>Begin Spectral Data<<<<<
220.843	4.62
221.644	5.62
222.444	5.62
223.244	6.62
224.045	7.62
224.845	6.62
225.645	7.62
226.445	6.62
227.245	6.62
228.045	10.62
228.845	7.62
229.645	6.62
230.444	7.62
231.244	8.62
232.043	6.62
232.843	9.62
233.642	10.62
234.442	8.62
235.241	9.62
236.04	9.62
236.839	10.62
237.638	10.62
238.437	12.62
239.236	10.62
240.035	9.62
240.833	11.62
241.632	14.62
242.43	15.62
243.229	10.62
244.027	12.62
244.826	14.62
245.624	15.62
246.422	15.62
247.22	15.62
248.018	15.62
248.816	16.62
249.614	14.62
250.412	17.62
251.21	15.62
252.007	19.62
252.805	17.62
253.602	18.62
254.4	18.62
255.197	17.62
255.994	19.62
256.791	21.62
257.589	23.62
258.386	22.62
259.183	21.62
259.979	24.62
260.776	23.62
261.573	25.62
262.37	23.62
263.166	27.62
263.963	27.62
264.759	26.62
265.556	28.62
266.352	30.62
267.148	28.62
267.944	27.62
268.74	28.62
269.536	36.62
270.332	31.62
271.128	32.62
271.924	34.62
272.719	35.62
273.515	34.62
274.311	36.62
275.106	36.62
275.901	32.62
276.697	37.62
277.492	38.62
278.287	35.62
279.082	37.62
279.877	39.62
280.672	36.62
281.467	36.62
282.262	33.62
283.056	36.62
283.851	35.62
284.646	37.62
285.44	36.62
286.234	34.62
287.029	34.62
287.823	32.62
288.617	32.62
289.411	33.62
290.205	39.62
290.999	33.62
291.793	31.62
292.587	32.62
293.381	30.62
294.174	30.62
294.968	30.62
295.761	26.62
296.555	27.62
297.348	26.62
298.141	24.62
298.935	26.62
299.728	26.62
300.521	25.62
301.314	27.62
302.107	22.62
302.899	24.62
303.692	22.62
304.485	19.62
305.277	24.62
306.07	21.62
306.862	19.62
307.655	21.62
308.447	20.62
309.239	17.62
310.031	20.62
310.823	18.62
311.615	13.62
312.407	15.62
313.199	19.62
313.991	15.62
314.783	15.62
315.574	15.62
316.366	15.62
317.157	17.62
317.949	15.62
318.74	15.62
319.531	14.62
320.322	12.62
321.113	13.62
321.904	13.62
322.695	11.62
323.486	13.62
324.277	13.62
325.068	11.62
325.858	11.62
326.649	12.62
327.439	12.62
328.23	13.62
329.02	10.62
329.81	13.62
330.6	9.62
331.391	10.62
332.181	11.62
332.971	10.62
333.76	11.62
334.55	11.62
335.34	10.62
336.13	10.62
336.919	12.62
337.709	12.62
338.498	12.62
339.287	11.62
340.077	11.62
340.866	13.62
341.655	9.62
342.444	11.62
343.233	12.62
344.022	8.62
344.811	13.62
345.6	8.62
346.388	9.62
347.177	13.62
347.965	9.62
348.754	14.62
349.542	10.62
350.33	10.62
351.119	12.62
351.907	10.62
352.695	11.62
353.483	9.62
354.271	9.62
355.059	10.62
355.846	11.62
356.634	10.62
357.422	9.62
358.209	11.62
358.997	9.62
359.784	8.62
360.571	9.62
361.359	9.62
362.146	10.62
362.933	9.62
363.72	8.62
364.507	10.62
365.294	8.62
366.081	9.62
366.867	9.62
367.654	12.62
368.44	11.62
369.227	9.62
370.013	8.62
370.8	10.62
371.586	7.62
372.372	9.62
373.158	6.62
373.944	10.62
374.73	9.62
375.516	8.62
376.302	9.62
377.088	11.62
377.873	10.62
378.659	14.62
379.445	9.62
380.23	11.62
381.015	6.62
381.801	11.62
382.586	12.62
383.371	10.62
384.156	9.62
384.941	10.62
385.726	8.62
386.511	10.62
387.296	12.62
388.08	11.62
388.865	7.62
389.649	12.62
390.434	12.62
391.218	12.62
392.003	12.62
392.787	12.62
393.571	10.62
394.355	12.62
395.139	12.62
395.923	11.62
396.707	12.62
397.491	12.62
398.274	11.62
399.058	12.62
399.842	12.62
400.625	15.62
401.408	17.62
402.192	14.62
402.975	13.62
403.758	14.62
404.541	14.62
405.324	14.62
406.107	14.62
406.89	15.62
407.673	15.62
408.456	14.62
409.238	16.62
410.021	16.62
410.803	16.62
411.586	14.62
412.368	16.62
413.151	16.62
413.933	18.62
414.715	20.62
415.497	18.62
416.279	19.62
417.061	18.62
417.843	19.62
418.624	19.62
419.406	21.62
420.188	20.62
420.969	24.62
421.751	21.62
422.532	21.62
423.313	25.62
424.095	22.62
424.876	24.62
425.657	23.62
426.438	24.62
427.219	27.62
428	26.62
428.78	33.62
429.561	25.62
430.342	32.62
431.122	32.62
431.903	32.62
432.683	31.62
433.464	33.62
434.244	34.62
435.024	36.62
435.804	37.62
436.584	40.62
437.364	40.62
438.144	49.62
438.924	50.62
439.704	54.62
440.483	52.62
441.263	60.62
442.042	67.62
442.822	67.62
443.601	70.62
444.38	78.62
445.16	83.62
445.939	90.62
446.718	94.62
447.497	106.62
448.276	114.62
449.054	125.62
449.833	138.62
450.612	152.62
451.391	165.62
452.169	182.62
452.948	199.62
453.726	223.62
454.504	247.62
455.282	277.62
456.061	310.62
456.839	343.62
457.617	377.62
458.395	432.62
459.172	472.62
459.95	529.62
460.728	585.62
461.506	666.62
462.283	736.62
463.061	822.62
463.838	939.62
464.615	1025.62
465.393	1150.62
466.17	1301.62
466.947	1430.62
467.724	1614.62
468.501	1790.62
469.278	1992.62
470.055	2211.62
470.831	2481.62
471.608	2732.62
472.385	3028.62
473.161	3338.62
473.938	3679.62
474.714	4076.62
475.49	4511.62
476.266	4965.62
477.043	5460.62
477.819	6010.62
478.595	6582.62
479.371	7270.62
480.146	7974.62
480.922	8731.62
481.698	9583.62
482.473	10474.62
483.249	11459.62
484.024	12455.62
484.8	13570.62
485.575	14825.62
486.35	16097.62
487.126	17491.62
487.901	19018.62
488.676	20553.62
489.451	22313.62
490.225	23973.62
491	25863.62
491.775	27685.62
492.55	29645.62
493.324	31597.62
494.099	33525.62
494.873	35502.62
495.647	37526.62
496.422	39495.62
497.196	41392.62
497.97	43122.62
498.744	44665.62
499.518	46256.62
500.292	47578.62
501.066	48462.62
501.839	49212.62
502.613	49764.62
503.387	50144.62
504.16	50361.62
504.934	50220.62
505.707	49635.62
506.48	49015.62
507.253	48167.62
508.027	47117.62
508.8	45796.62
509.573	44568.62
510.346	43191.62
511.118	41840.62
511.891	40348.62
512.664	38656.62
513.437	37148.62
514.209	35612.62
514.982	34135.62
515.754	32664.62
516.526	31272.62
517.298	30046.62
518.071	28784.62
518.843	27567.62
519.615	26484.62
520.387	25474.62
521.159	24467.62
521.93	23350.62
522.702	22321.62
523.474	21379.62
524.245	20478.62
525.017	19582.62
525.788	18668.62
526.56	17802.62
527.331	17048.62
528.102	16111.62
528.873	15264.62
529.644	14529.62
530.415	13828.62
531.186	13127.62
531.957	12399.62
532.728	11744.62
533.498	11090.62
534.269	10534.62
535.039	9946.62
535.81	9403.62
536.58	8856.62
537.351	8407.62
538.121	7946.62
538.891	7522.62
539.661	7151.62
540.431	6738.62
541.201	6392.62
541.971	6070.62
542.741	5718.62
543.51	5441.62
544.28	5168.62
545.05	4914.62
545.819	4705.62
546.588	4490.62
547.358	4257.62
548.127	4063.62
548.896	3844.62
549.665	3626.62
550.434	3410.62
551.203	3244.62
551.972	3074.62
552.741	2933.62
553.51	2746.62
554.278	2588.62
555.047	2444.62
555.815	2290.62
556.584	2187.62
557.352	2055.62
558.121	1934.62
558.889	1833.62
559.657	1733.62
560.425	1644.62
561.193	1541.62
561.961	1463.62
562.729	1392.62
563.496	1310.62
564.264	1234.62
565.032	1182.62
565.799	1121.62
566.567	1055.62
567.334	1009.62
568.101	954.62
568.869	897.62
569.636	834.62
570.403	790.62
571.17	757.62
571.937	706.62
572.704	665.62
573.471	627.62
574.237	592.62
575.004	556.62
575.771	523.62
576.537	486.62
577.303	476.62
578.07	445.62
578.836	415.62
579.602	389.62
580.368	375.62
581.134	362.62
581.9	348.62
582.666	319.62
583.432	305.62
584.198	287.62
584.964	276.62
585.729	267.62
586.495	248.62
587.26	238.62
588.025	225.62
588.791	209.62
589.556	206.62
590.321	189.62
591.086	177.62
591.851	170.62
592.616	162.62
593.381	154.62
594.146	145.62
594.911	146.62
595.675	138.62
596.44	130.62
597.204	126.62
597.969	119.62
598.733	113.62
599.497	106.62
600.261	108.62
601.025	100.62
601.79	92.62
602.553	88.62
603.317	88.62
604.081	85.62
604.845	79.62
605.609	76.62
606.372	76.62
607.136	70.62
607.899	66.62
608.662	67.62
609.426	65.62
610.189	67.62
610.952	58.62
611.715	58.62
612.478	57.62
613.241	56.62
614.004	54.62
614.767	50.62
615.529	48.62
616.292	46.62
617.055	48.62
617.817	44.62
618.579	42.62
619.342	43.62
620.104	41.62
620.866	40.62
621.628	38.62
622.39	39.62
623.152	33.62
623.914	32.62
624.676	33.62
625.438	29.62
626.199	29.62
626.961	28.62
627.722	29.62
628.484	28.62
629.245	25.62
630.006	27.62
630.768	25.62
631.529	26.62
632.29	24.62
633.051	22.62
633.812	23.62
634.573	23.62
635.333	22.62
636.094	24.62
636.855	21.62
637.615	21.62
638.376	20.62
639.136	18.62
639.896	19.62
640.657	20.62
641.417	17.62
642.177	15.62
642.937	17.62
643.697	16.62
644.457	16.62
645.216	15.62
645.976	16.62
646.736	16.62
647.495	16.62
648.255	11.62
649.014	11.62
649.774	13.62
650.533	15.62
651.292	11.62
652.051	12.62
652.81	11.62
653.569	13.62
654.328	13.62
655.087	12.62
655.846	10.62
656.604	12.62
657.363	11.62
658.121	12.62
658.88	11.62
659.638	12.62
660.397	10.62
661.155	9.62
661.913	10.62
662.671	10.62
663.429	11.62
664.187	9.62
664.945	9.62
665.703	10.62
666.46	9.62
667.218	10.62
667.976	10.62
668.733	10.62
669.49	6.62
670.248	8.62
671.005	10.62
671.762	12.62
672.519	9.62
673.276	10.62
674.033	12.62
674.79	4.62
675.547	10.62
676.304	8.62
677.06	7.62
677.817	7.62
678.574	8.62
679.33	6.62
680.086	7.62
680.843	8.62
681.599	7.62
682.355	8.62
683.111	9.62
683.867	7.62
684.623	5.62
685.379	7.62
686.135	7.62
686.89	7.62
687.646	7.62
688.402	6.62
689.157	9.62
689.912	8.62
690.668	4.62
691.423	6.62
692.178	8.62
692.933	6.62
693.688	6.62
694.443	5.62
695.198	7.62
695.953	7.62
696.708	8.62
697.462	7.62
698.217	6.62
698.972	7.62
699.726	6.62
700.48	8.62
701.235	5.62
701.989	8.62
702.743	5.62
703.497	5.62
704.251	7.62
705.005	6.62
705.759	4.62
706.513	6.62
707.266	6.62
708.02	8.62
708.774	7.62
709.527	8.62
710.28	8.62
711.034	6.62
711.787	7.62
712.54	8.62
713.293	7.62
714.046	7.62
714.799	7.62
715.552	8.62
716.305	7.62
717.058	9.62
717.81	6.62
718.563	6.62
719.315	8.62
720.068	8.62
720.82	8.62
721.573	9.62
722.325	6.62
723.077	8.62
723.829	7.62
724.581	7.62
725.333	7.62
726.085	8.62
726.836	7.62
727.588	5.62
728.34	7.62
729.091	9.62
729.843	6.62
730.594	7.62
731.346	8.62
732.097	9.62
732.848	9.62
733.599	8.62
734.35	9.62
735.101	8.62
735.852	11.62
736.603	10.62
737.354	7.62
738.104	10.62
738.855	10.62
739.605	9.62
740.356	10.62
741.106	9.62
741.856	7.62
742.607	11.62
743.357	10.62
744.107	9.62
744.857	10.62
745.607	11.62
746.357	12.62
747.106	10.62
747.856	10.62
748.606	8.62
749.355	11.62
750.105	11.62
750.854	10.62
751.603	10.62
752.353	11.62
753.102	11.62
753.851	11.62
754.6	15.62
755.349	10.62
756.098	11.62
756.847	11.62
757.595	11.62
758.344	12.62
759.093	10.62
759.841	12.62
760.589	13.62
761.338	11.62
762.086	13.62
762.834	15.62
763.582	14.62
764.331	14.62
765.079	13.62
765.826	12.62
766.574	13.62
767.322	16.62
768.07	17.62
768.817	13.62
769.565	13.62
770.312	15.62
771.06	13.62
771.807	16.62
772.554	14.62
773.302	14.62
774.049	14.62
774.796	14.62
775.543	18.62
776.29	16.62
777.036	13.62
777.783	15.62
778.53	16.62
779.276	15.62
780.023	16.62
780.769	19.62
781.516	16.62
782.262	16.62
783.008	17.62
783.754	13.62
784.5	15.62
785.246	16.62
785.992	17.62
786.738	14.62
787.484	13.62
788.23	15.62
788.975	15.62
789.721	16.62
790.466	12.62
791.212	13.62
791.957	15.62
792.702	12.62
793.447	14.62
794.193	10.62
794.938	14.62
795.683	12.62
796.427	14.62
797.172	13.62
797.917	13.62
798.662	12.62
799.406	12.62
800.151	13.62
800.895	11.62
801.64	10.62
802.384	12.62
803.128	10.62
803.872	12.62
804.616	10.62
805.36	12.62
806.104	10.62
806.848	10.62
807.592	10.62
808.336	9.62
809.079	10.62
809.823	11.62
810.566	9.62
811.31	9.62
812.053	8.62
812.796	9.62
813.539	8.62
814.283	9.62
815.026	10.62
815.769	6.62
816.511	9.62
817.254	8.62
817.997	8.62
818.74	6.62
819.482	5.62
820.225	7.62
820.967	7.62
821.71	6.62
822.452	7.62
823.194	7.62
823.936	6.62
824.678	4.62
825.42	6.62
826.162	5.62
826.904	6.62
827.646	8.62
828.388	7.62
829.129	5.62
829.871	4.62
830.612	3.62
831.354	4.62
832.095	6.62
832.836	4.62
833.577	4.62
834.319	6.62
835.06	4.62
835.801	7.62
836.542	6.62
837.282	6.62
838.023	8.62
838.764	4.62
839.504	5.62
840.245	2.62
840.985	6.62
841.726	3.62
842.466	5.62
843.206	6.62
843.946	6.62
844.687	4.62
845.427	5.62
846.166	3.62
846.906	5.62
847.646	5.62
848.386	3.62
849.125	0.62
849.865	6.62
850.605	3.62
851.344	2.62
852.083	4.62
852.823	3.62
853.562	4.62
854.301	3.62
855.04	3.62
855.779	1.62
856.518	4.62
857.257	2.62
857.995	2.62
858.734	3.62
859.473	1.62
860.211	2.62
860.95	2.62
861.688	2.62
862.426	2.62
863.165	1.62
863.903	2.62
864.641	2.62
865.379	1.62
866.117	5.62
866.855	1.62
867.593	1.62
868.33	1.62
869.068	2.62
869.806	2.62
870.543	2.62
871.28	0.62
872.018	0.62
872.755	2.62
873.492	0.62
874.229	2.62
874.967	2.62
875.703	-0.38
876.44	1.62
877.177	0.62
877.914	2.62
878.651	0.62
879.387	1.62
880.124	1.62
880.86	0.62
881.597	-0.38
882.333	0.62
883.069	2.62
883.806	-0.38
884.542	-1.38
885.278	2.62
886.014	1.62
886.749	0.62
887.485	-1.38
888.221	1.62
888.957	1.62
889.692	-3.38
890.428	1.62
891.163	0.62
891.899	1.62
892.634	1.62
893.369	-1.38
894.104	0.62
894.839	-0.38
895.574	-1.38
896.309	2.62
897.044	0.62
897.779	0.62
898.514	-1.38
899.248	-0.38
899.983	-2.38
900.717	1.62
901.452	-1.38
902.186	0.62
902.92	1.62
903.654	-0.38
904.389	0.62
905.123	1.62
905.857	-0.38
906.59	3.62
907.324	1.62
908.058	0.62
908.792	-1.38
909.525	3.62
910.259	1.62
910.992	-2.38
911.726	1.62
912.459	0.62
913.192	-0.38
913.925	-0.38
914.658	0.62
915.391	-1.38
916.124	-1.38
916.857	1.62
917.59	-1.38
918.323	-0.38
919.055	1.62
919.788	0.62
920.521	-0.38
921.253	1.62
921.985	1.62
922.718	-0.38
923.45	1.62
924.182	-0.38
924.914	0.62
925.646	-0.38
926.378	-0.38
927.11	0.62
927.841	0.62
928.573	-1.38
929.305	0.62
930.036	-0.38
930.768	-1.38
931.499	-0.38
932.23	0.62
932.962	0.62
933.693	1.62
934.424	1.62
935.155	0.62
935.886	2.62
936.617	0.62
937.348	1.62
938.078	0.62
938.809	-1.38
939.54	-0.38
940.27	-1.38
941.001	-1.38
941.731	0.62
942.461	-0.38
943.191	0.62
943.922	-0.38
944.652	-1.38
945.382	1.62
946.112	1.62
946.841	-1.38
947.571	0.62
948.301	1.62
949.031	0.62
949.76	0.62
950.49	-1.38
951.219	-1.38
951.948	1.62
952.678	-1.38
953.407	1.62
954.136	-0.38
954.865	0.62
955.594	0.62
956.323	-0.38
957.052	1.62
957.78	-1.38
958.509	-1.38
959.238	-0.38
959.966	0.62
960.695	-2.38
961.423	-0.38
962.151	0.62
962.88	-0.38
963.608	-1.38
964.336	-1.38
965.064	2.62
965.792	-0.38
966.52	0.62
967.247	-1.38
967.975	0.62
968.703	2.62
969.43	-1.38
970.158	0.62
970.885	-1.38
971.613	-1.38
972.34	0.62
973.067	-0.38
973.794	-1.38
974.521	-1.38
975.248	0.62
975.975	-0.38
976.702	-0.38
977.429	2.62
978.156	-0.38
978.882	0.62
979.609	-1.38
980.335	0.62
981.062	-1.38
981.788	-0.38
982.514	-0.38
983.24	-0.38
983.967	0.62
984.693	-1.38
985.419	-1.38
986.144	-0.38
986.87	-1.38
987.596	1.62
988.322	1.62
989.047	-1.38
989.773	0.62
990.498	0.62
991.224	1.62
991.949	-0.38
992.674	1.62
993.399	-0.38
994.124	-0.38
994.849	2.62
995.574	-1.38
996.299	0.62
997.024	-0.38
997.749	0.62
998.473	-1.38
999.198	-1.38
999.922	0.62
1000.647	0.62
1001.371	2.62
1002.095	-0.38
1002.82	-1.38
1003.544	-0.38
1004.268	3.62
1004.992	4.62
1005.716	2.62
1006.439	2.62
1007.163	4.62
1007.887	6.62
1008.611	0.62
1009.334	-1.38
1010.058	-0.38
1010.781	-1.38
1011.504	1.62
1012.228	0.62
1012.951	-1.38
1013.674	-0.38
1014.397	0.62
1015.12	0.62
