节点500_705_QEPB04081__69__20-47-02-291.txt的数据

Date: Wed Nov 12 20:47:02 CST 2025
User: PC
Spectrometer: QEPB0408
触发模式: 0
积分时间 (秒): 1.000000E-2
Scans to average: 1
启用暗噪声校正: true
启用非线性校正: false
滑动平均宽度: 0
X轴模式: Wavelengths
Number of Pixels in Spectrum: 1044
>>>>>Begin Spectral Data<<<<<
220.843	7.5
221.644	5.5
222.444	5.5
223.244	5.5
224.045	5.5
224.845	8.5
225.645	6.5
226.445	5.5
227.245	7.5
228.045	10.5
228.845	7.5
229.645	10.5
230.444	11.5
231.244	11.5
232.043	9.5
232.843	10.5
233.642	9.5
234.442	11.5
235.241	9.5
236.04	11.5
236.839	8.5
237.638	10.5
238.437	13.5
239.236	9.5
240.035	12.5
240.833	11.5
241.632	13.5
242.43	13.5
243.229	15.5
244.027	13.5
244.826	15.5
245.624	17.5
246.422	14.5
247.22	16.5
248.018	15.5
248.816	17.5
249.614	19.5
250.412	17.5
251.21	20.5
252.007	18.5
252.805	19.5
253.602	18.5
254.4	20.5
255.197	22.5
255.994	21.5
256.791	22.5
257.589	23.5
258.386	24.5
259.183	26.5
259.979	24.5
260.776	25.5
261.573	25.5
262.37	25.5
263.166	29.5
263.963	29.5
264.759	28.5
265.556	28.5
266.352	28.5
267.148	31.5
267.944	27.5
268.74	33.5
269.536	31.5
270.332	34.5
271.128	34.5
271.924	35.5
272.719	33.5
273.515	35.5
274.311	33.5
275.106	38.5
275.901	35.5
276.697	37.5
277.492	39.5
278.287	39.5
279.082	37.5
279.877	38.5
280.672	37.5
281.467	35.5
282.262	36.5
283.056	38.5
283.851	37.5
284.646	34.5
285.44	37.5
286.234	36.5
287.029	36.5
287.823	35.5
288.617	33.5
289.411	35.5
290.205	33.5
290.999	35.5
291.793	31.5
292.587	30.5
293.381	31.5
294.174	31.5
294.968	31.5
295.761	29.5
296.555	30.5
297.348	27.5
298.141	26.5
298.935	28.5
299.728	29.5
300.521	26.5
301.314	25.5
302.107	25.5
302.899	24.5
303.692	23.5
304.485	27.5
305.277	20.5
306.07	25.5
306.862	26.5
307.655	21.5
308.447	23.5
309.239	23.5
310.031	21.5
310.823	19.5
311.615	17.5
312.407	18.5
313.199	18.5
313.991	18.5
314.783	19.5
315.574	19.5
316.366	15.5
317.157	18.5
317.949	15.5
318.74	17.5
319.531	16.5
320.322	15.5
321.113	15.5
321.904	12.5
322.695	15.5
323.486	13.5
324.277	14.5
325.068	14.5
325.858	12.5
326.649	15.5
327.439	14.5
328.23	13.5
329.02	12.5
329.81	12.5
330.6	12.5
331.391	13.5
332.181	14.5
332.971	12.5
333.76	12.5
334.55	13.5
335.34	13.5
336.13	12.5
336.919	10.5
337.709	13.5
338.498	9.5
339.287	14.5
340.077	13.5
340.866	13.5
341.655	11.5
342.444	15.5
343.233	14.5
344.022	10.5
344.811	12.5
345.6	11.5
346.388	15.5
347.177	12.5
347.965	11.5
348.754	11.5
349.542	11.5
350.33	11.5
351.119	11.5
351.907	12.5
352.695	10.5
353.483	14.5
354.271	8.5
355.059	11.5
355.846	11.5
356.634	11.5
357.422	9.5
358.209	12.5
358.997	13.5
359.784	11.5
360.571	12.5
361.359	11.5
362.146	13.5
362.933	12.5
363.72	9.5
364.507	12.5
365.294	10.5
366.081	10.5
366.867	9.5
367.654	11.5
368.44	10.5
369.227	10.5
370.013	9.5
370.8	10.5
371.586	10.5
372.372	11.5
373.158	11.5
373.944	12.5
374.73	11.5
375.516	12.5
376.302	10.5
377.088	12.5
377.873	11.5
378.659	10.5
379.445	9.5
380.23	13.5
381.015	11.5
381.801	10.5
382.586	11.5
383.371	11.5
384.156	11.5
384.941	13.5
385.726	12.5
386.511	16.5
387.296	10.5
388.08	14.5
388.865	15.5
389.649	12.5
390.434	12.5
391.218	14.5
392.003	10.5
392.787	13.5
393.571	11.5
394.355	11.5
395.139	15.5
395.923	11.5
396.707	14.5
397.491	11.5
398.274	14.5
399.058	14.5
399.842	15.5
400.625	14.5
401.408	14.5
402.192	14.5
402.975	15.5
403.758	15.5
404.541	15.5
405.324	14.5
406.107	11.5
406.89	16.5
407.673	18.5
408.456	19.5
409.238	15.5
410.021	15.5
410.803	17.5
411.586	17.5
412.368	17.5
413.151	18.5
413.933	18.5
414.715	18.5
415.497	19.5
416.279	20.5
417.061	20.5
417.843	19.5
418.624	23.5
419.406	23.5
420.188	22.5
420.969	22.5
421.751	23.5
422.532	24.5
423.313	25.5
424.095	26.5
424.876	22.5
425.657	26.5
426.438	25.5
427.219	30.5
428	29.5
428.78	30.5
429.561	34.5
430.342	31.5
431.122	33.5
431.903	32.5
432.683	33.5
433.464	35.5
434.244	37.5
435.024	36.5
435.804	43.5
436.584	41.5
437.364	46.5
438.144	46.5
438.924	47.5
439.704	55.5
440.483	57.5
441.263	60.5
442.042	64.5
442.822	66.5
443.601	74.5
444.38	76.5
445.16	80.5
445.939	88.5
446.718	98.5
447.497	104.5
448.276	119.5
449.054	126.5
449.833	135.5
450.612	146.5
451.391	169.5
452.169	184.5
452.948	206.5
453.726	229.5
454.504	248.5
455.282	279.5
456.061	306.5
456.839	346.5
457.617	386.5
458.395	425.5
459.172	475.5
459.95	533.5
460.728	606.5
461.506	669.5
462.283	751.5
463.061	842.5
463.838	936.5
464.615	1038.5
465.393	1159.5
466.17	1300.5
466.947	1445.5
467.724	1600.5
468.501	1795.5
469.278	1998.5
470.055	2232.5
470.831	2465.5
471.608	2736.5
472.385	3039.5
473.161	3374.5
473.938	3693.5
474.714	4095.5
475.49	4493.5
476.266	4955.5
477.043	5454.5
477.819	5977.5
478.595	6580.5
479.371	7213.5
480.146	7945.5
480.922	8715.5
481.698	9569.5
482.473	10420.5
483.249	11405.5
484.024	12377.5
484.8	13511.5
485.575	14740.5
486.35	16044.5
487.126	17416.5
487.901	18837.5
488.676	20432.5
489.451	22174.5
490.225	23827.5
491	25618.5
491.775	27456.5
492.55	29346.5
493.324	31267.5
494.099	33277.5
494.873	35280.5
495.647	37228.5
496.422	39137.5
497.196	41027.5
497.97	42801.5
498.744	44329.5
499.518	45915.5
500.292	47190.5
501.066	48131.5
501.839	48872.5
502.613	49423.5
503.387	49865.5
504.16	50033.5
504.934	49876.5
505.707	49525.5
506.48	48808.5
507.253	48036.5
508.027	47084.5
508.8	45794.5
509.573	44449.5
510.346	43114.5
511.118	41897.5
511.891	40447.5
512.664	38654.5
513.437	37041.5
514.209	35643.5
514.982	34230.5
515.754	32765.5
516.526	31305.5
517.298	30055.5
518.071	28871.5
518.843	27661.5
519.615	26490.5
520.387	25524.5
521.159	24509.5
521.93	23355.5
522.702	22335.5
523.474	21529.5
524.245	20551.5
525.017	19579.5
525.788	18700.5
526.56	17877.5
527.331	17068.5
528.102	16158.5
528.873	15274.5
529.644	14568.5
530.415	13902.5
531.186	13164.5
531.957	12472.5
532.728	11795.5
533.498	11132.5
534.269	10543.5
535.039	9926.5
535.81	9452.5
536.58	8895.5
537.351	8437.5
538.121	7980.5
538.891	7557.5
539.661	7171.5
540.431	6743.5
541.201	6383.5
541.971	6090.5
542.741	5763.5
543.51	5481.5
544.28	5208.5
545.05	4955.5
545.819	4706.5
546.588	4473.5
547.358	4316.5
548.127	4075.5
548.896	3853.5
549.665	3656.5
550.434	3469.5
551.203	3274.5
551.972	3103.5
552.741	2932.5
553.51	2745.5
554.278	2621.5
555.047	2452.5
555.815	2317.5
556.584	2193.5
557.352	2084.5
558.121	1952.5
558.889	1844.5
559.657	1742.5
560.425	1647.5
561.193	1558.5
561.961	1460.5
562.729	1402.5
563.496	1321.5
564.264	1249.5
565.032	1166.5
565.799	1115.5
566.567	1062.5
567.334	1002.5
568.101	937.5
568.869	894.5
569.636	853.5
570.403	780.5
571.17	760.5
571.937	712.5
572.704	674.5
573.471	637.5
574.237	603.5
575.004	561.5
575.771	535.5
576.537	491.5
577.303	479.5
578.07	445.5
578.836	425.5
579.602	403.5
580.368	385.5
581.134	360.5
581.9	340.5
582.666	330.5
583.432	308.5
584.198	291.5
584.964	278.5
585.729	260.5
586.495	252.5
587.26	245.5
588.025	228.5
588.791	218.5
589.556	206.5
590.321	190.5
591.086	185.5
591.851	175.5
592.616	168.5
593.381	156.5
594.146	155.5
594.911	148.5
595.675	137.5
596.44	132.5
597.204	127.5
597.969	121.5
598.733	117.5
599.497	111.5
600.261	108.5
601.025	97.5
601.79	95.5
602.553	92.5
603.317	89.5
604.081	87.5
604.845	79.5
605.609	83.5
606.372	77.5
607.136	71.5
607.899	73.5
608.662	67.5
609.426	70.5
610.189	66.5
610.952	61.5
611.715	57.5
612.478	55.5
613.241	57.5
614.004	54.5
614.767	49.5
615.529	49.5
616.292	47.5
617.055	48.5
617.817	46.5
618.579	45.5
619.342	43.5
620.104	39.5
620.866	38.5
621.628	39.5
622.39	37.5
623.152	37.5
623.914	38.5
624.676	33.5
625.438	33.5
626.199	31.5
626.961	31.5
627.722	31.5
628.484	27.5
629.245	28.5
630.006	27.5
630.768	29.5
631.529	27.5
632.29	26.5
633.051	25.5
633.812	22.5
634.573	22.5
635.333	21.5
636.094	19.5
636.855	24.5
637.615	19.5
638.376	23.5
639.136	21.5
639.896	19.5
640.657	17.5
641.417	19.5
642.177	17.5
642.937	18.5
643.697	19.5
644.457	19.5
645.216	16.5
645.976	18.5
646.736	16.5
647.495	15.5
648.255	14.5
649.014	15.5
649.774	14.5
650.533	16.5
651.292	15.5
652.051	13.5
652.81	14.5
653.569	14.5
654.328	12.5
655.087	14.5
655.846	12.5
656.604	13.5
657.363	14.5
658.121	12.5
658.88	13.5
659.638	11.5
660.397	13.5
661.155	12.5
661.913	13.5
662.671	9.5
663.429	12.5
664.187	9.5
664.945	9.5
665.703	10.5
666.46	12.5
667.218	13.5
667.976	10.5
668.733	10.5
669.49	12.5
670.248	10.5
671.005	11.5
671.762	10.5
672.519	8.5
673.276	9.5
674.033	10.5
674.79	8.5
675.547	7.5
676.304	7.5
677.06	9.5
677.817	9.5
678.574	8.5
679.33	8.5
680.086	9.5
680.843	9.5
681.599	9.5
682.355	9.5
683.111	8.5
683.867	8.5
684.623	11.5
685.379	9.5
686.135	8.5
686.89	6.5
687.646	7.5
688.402	7.5
689.157	8.5
689.912	8.5
690.668	6.5
691.423	12.5
692.178	5.5
692.933	9.5
693.688	8.5
694.443	9.5
695.198	8.5
695.953	9.5
696.708	8.5
697.462	11.5
698.217	9.5
698.972	7.5
699.726	9.5
700.48	8.5
701.235	5.5
701.989	6.5
702.743	6.5
703.497	8.5
704.251	8.5
705.005	9.5
705.759	9.5
706.513	8.5
707.266	8.5
708.02	6.5
708.774	8.5
709.527	7.5
710.28	8.5
711.034	9.5
711.787	8.5
712.54	7.5
713.293	7.5
714.046	10.5
714.799	9.5
715.552	8.5
716.305	7.5
717.058	8.5
717.81	7.5
718.563	6.5
719.315	11.5
720.068	7.5
720.82	8.5
721.573	9.5
722.325	7.5
723.077	7.5
723.829	9.5
724.581	10.5
725.333	9.5
726.085	6.5
726.836	10.5
727.588	10.5
728.34	10.5
729.091	9.5
729.843	10.5
730.594	11.5
731.346	8.5
732.097	10.5
732.848	9.5
733.599	9.5
734.35	10.5
735.101	9.5
735.852	12.5
736.603	8.5
737.354	10.5
738.104	11.5
738.855	10.5
739.605	12.5
740.356	10.5
741.106	10.5
741.856	11.5
742.607	12.5
743.357	10.5
744.107	12.5
744.857	11.5
745.607	9.5
746.357	13.5
747.106	11.5
747.856	12.5
748.606	13.5
749.355	9.5
750.105	10.5
750.854	12.5
751.603	13.5
752.353	15.5
753.102	10.5
753.851	13.5
754.6	14.5
755.349	11.5
756.098	12.5
756.847	13.5
757.595	12.5
758.344	12.5
759.093	14.5
759.841	14.5
760.589	14.5
761.338	12.5
762.086	16.5
762.834	15.5
763.582	14.5
764.331	15.5
765.079	14.5
765.826	14.5
766.574	17.5
767.322	16.5
768.07	17.5
768.817	12.5
769.565	18.5
770.312	17.5
771.06	15.5
771.807	15.5
772.554	16.5
773.302	14.5
774.049	15.5
774.796	16.5
775.543	15.5
776.29	17.5
777.036	17.5
777.783	15.5
778.53	20.5
779.276	17.5
780.023	21.5
780.769	15.5
781.516	17.5
782.262	16.5
783.008	14.5
783.754	17.5
784.5	17.5
785.246	15.5
785.992	18.5
786.738	15.5
787.484	16.5
788.23	15.5
788.975	19.5
789.721	17.5
790.466	19.5
791.212	16.5
791.957	17.5
792.702	17.5
793.447	15.5
794.193	15.5
794.938	14.5
795.683	16.5
796.427	13.5
797.172	16.5
797.917	14.5
798.662	14.5
799.406	15.5
800.151	11.5
800.895	14.5
801.64	13.5
802.384	13.5
803.128	14.5
803.872	13.5
804.616	12.5
805.36	13.5
806.104	10.5
806.848	11.5
807.592	12.5
808.336	12.5
809.079	9.5
809.823	7.5
810.566	9.5
811.31	11.5
812.053	11.5
812.796	7.5
813.539	9.5
814.283	10.5
815.026	11.5
815.769	9.5
816.511	8.5
817.254	7.5
817.997	10.5
818.74	5.5
819.482	8.5
820.225	7.5
820.967	9.5
821.71	8.5
822.452	5.5
823.194	8.5
823.936	7.5
824.678	8.5
825.42	6.5
826.162	8.5
826.904	4.5
827.646	6.5
828.388	7.5
829.129	7.5
829.871	4.5
830.612	7.5
831.354	7.5
832.095	7.5
832.836	7.5
833.577	6.5
834.319	5.5
835.06	6.5
835.801	7.5
836.542	6.5
837.282	5.5
838.023	4.5
838.764	7.5
839.504	5.5
840.245	5.5
840.985	6.5
841.726	7.5
842.466	7.5
843.206	5.5
843.946	5.5
844.687	5.5
845.427	5.5
846.166	5.5
846.906	4.5
847.646	5.5
848.386	4.5
849.125	4.5
849.865	7.5
850.605	4.5
851.344	5.5
852.083	4.5
852.823	7.5
853.562	5.5
854.301	5.5
855.04	4.5
855.779	5.5
856.518	5.5
857.257	6.5
857.995	5.5
858.734	3.5
859.473	2.5
860.211	3.5
860.95	6.5
861.688	5.5
862.426	2.5
863.165	3.5
863.903	3.5
864.641	1.5
865.379	1.5
866.117	3.5
866.855	3.5
867.593	1.5
868.33	3.5
869.068	3.5
869.806	1.5
870.543	2.5
871.28	3.5
872.018	4.5
872.755	3.5
873.492	2.5
874.229	3.5
874.967	3.5
875.703	1.5
876.44	3.5
877.177	3.5
877.914	5.5
878.651	1.5
879.387	2.5
880.124	2.5
880.86	1.5
881.597	1.5
882.333	1.5
883.069	3.5
883.806	0.5
884.542	2.5
885.278	2.5
886.014	2.5
886.749	0.5
887.485	2.5
888.221	-0.5
888.957	1.5
889.692	3.5
890.428	3.5
891.163	1.5
891.899	1.5
892.634	1.5
893.369	1.5
894.104	2.5
894.839	1.5
895.574	2.5
896.309	1.5
897.044	1.5
897.779	1.5
898.514	3.5
899.248	-0.5
899.983	3.5
900.717	1.5
901.452	-0.5
902.186	0.5
902.92	2.5
903.654	2.5
904.389	0.5
905.123	-0.5
905.857	0.5
906.59	1.5
907.324	1.5
908.058	1.5
908.792	5.5
909.525	-0.5
910.259	2.5
910.992	2.5
911.726	2.5
912.459	-0.5
913.192	0.5
913.925	-0.5
914.658	-0.5
915.391	2.5
916.124	0.5
916.857	-1.5
917.59	0.5
918.323	-1.5
919.055	1.5
919.788	1.5
920.521	0.5
921.253	1.5
921.985	0.5
922.718	0.5
923.45	1.5
924.182	-1.5
924.914	1.5
925.646	2.5
926.378	0.5
927.11	2.5
927.841	-0.5
928.573	2.5
929.305	1.5
930.036	2.5
930.768	1.5
931.499	2.5
932.23	-0.5
932.962	-0.5
933.693	0.5
934.424	-0.5
935.155	1.5
935.886	0.5
936.617	-0.5
937.348	-0.5
938.078	-0.5
938.809	2.5
939.54	1.5
940.27	0.5
941.001	2.5
941.731	1.5
942.461	0.5
943.191	-0.5
943.922	0.5
944.652	-1.5
945.382	1.5
946.112	1.5
946.841	1.5
947.571	3.5
948.301	1.5
949.031	0.5
949.76	-0.5
950.49	0.5
951.219	1.5
951.948	0.5
952.678	1.5
953.407	0.5
954.136	0.5
954.865	1.5
955.594	0.5
956.323	3.5
957.052	-0.5
957.78	0.5
958.509	2.5
959.238	0.5
959.966	-0.5
960.695	-0.5
961.423	2.5
962.151	1.5
962.88	0.5
963.608	0.5
964.336	-0.5
965.064	0.5
965.792	1.5
966.52	1.5
967.247	-0.5
967.975	-0.5
968.703	-0.5
969.43	1.5
970.158	-0.5
970.885	-1.5
971.613	1.5
972.34	1.5
973.067	2.5
973.794	-0.5
974.521	-0.5
975.248	1.5
975.975	-0.5
976.702	2.5
977.429	2.5
978.156	-0.5
978.882	0.5
979.609	-0.5
980.335	1.5
981.062	0.5
981.788	1.5
982.514	1.5
983.24	0.5
983.967	-0.5
984.693	1.5
985.419	2.5
986.144	-2.5
986.87	-0.5
987.596	1.5
988.322	1.5
989.047	0.5
989.773	2.5
990.498	0.5
991.224	1.5
991.949	-0.5
992.674	1.5
993.399	0.5
994.124	0.5
994.849	1.5
995.574	3.5
996.299	0.5
997.024	-1.5
997.749	0.5
998.473	1.5
999.198	-1.5
999.922	0.5
1000.647	1.5
1001.371	4.5
1002.095	-1.5
1002.82	-1.5
1003.544	-0.5
1004.268	4.5
1004.992	4.5
1005.716	5.5
1006.439	8.5
1007.163	4.5
1007.887	5.5
1008.611	3.5
1009.334	0.5
1010.058	0.5
1010.781	0.5
1011.504	1.5
1012.228	2.5
1012.951	-0.5
1013.674	-0.5
1014.397	-0.5
1015.12	0.5
