节点500_705_QEPB04081__214__20-48-58-495.txt的数据

Date: Wed Nov 12 20:48:58 CST 2025
User: PC
Spectrometer: QEPB0408
触发模式: 0
积分时间 (秒): 1.000000E-2
Scans to average: 1
启用暗噪声校正: true
启用非线性校正: false
滑动平均宽度: 0
X轴模式: Wavelengths
Number of Pixels in Spectrum: 1044
>>>>>Begin Spectral Data<<<<<
220.843	7.88
221.644	4.88
222.444	5.88
223.244	3.88
224.045	7.88
224.845	6.88
225.645	5.88
226.445	6.88
227.245	5.88
228.045	7.88
228.845	7.88
229.645	10.88
230.444	8.88
231.244	7.88
232.043	10.88
232.843	8.88
233.642	7.88
234.442	8.88
235.241	12.88
236.04	9.88
236.839	7.88
237.638	12.88
238.437	9.88
239.236	10.88
240.035	11.88
240.833	10.88
241.632	10.88
242.43	12.88
243.229	14.88
244.027	11.88
244.826	14.88
245.624	11.88
246.422	16.88
247.22	12.88
248.018	12.88
248.816	15.88
249.614	14.88
250.412	17.88
251.21	16.88
252.007	17.88
252.805	17.88
253.602	18.88
254.4	18.88
255.197	18.88
255.994	20.88
256.791	21.88
257.589	19.88
258.386	20.88
259.183	24.88
259.979	24.88
260.776	25.88
261.573	22.88
262.37	23.88
263.166	26.88
263.963	25.88
264.759	27.88
265.556	27.88
266.352	27.88
267.148	30.88
267.944	29.88
268.74	32.88
269.536	31.88
270.332	34.88
271.128	30.88
271.924	32.88
272.719	32.88
273.515	31.88
274.311	33.88
275.106	34.88
275.901	38.88
276.697	34.88
277.492	37.88
278.287	36.88
279.082	35.88
279.877	35.88
280.672	37.88
281.467	35.88
282.262	37.88
283.056	34.88
283.851	34.88
284.646	36.88
285.44	38.88
286.234	35.88
287.029	34.88
287.823	33.88
288.617	33.88
289.411	31.88
290.205	31.88
290.999	34.88
291.793	31.88
292.587	31.88
293.381	32.88
294.174	28.88
294.968	27.88
295.761	25.88
296.555	25.88
297.348	25.88
298.141	28.88
298.935	25.88
299.728	25.88
300.521	25.88
301.314	23.88
302.107	24.88
302.899	24.88
303.692	23.88
304.485	21.88
305.277	20.88
306.07	21.88
306.862	24.88
307.655	23.88
308.447	21.88
309.239	19.88
310.031	20.88
310.823	18.88
311.615	19.88
312.407	17.88
313.199	19.88
313.991	17.88
314.783	16.88
315.574	12.88
316.366	16.88
317.157	16.88
317.949	15.88
318.74	14.88
319.531	13.88
320.322	15.88
321.113	14.88
321.904	12.88
322.695	14.88
323.486	12.88
324.277	12.88
325.068	13.88
325.858	10.88
326.649	12.88
327.439	13.88
328.23	10.88
329.02	14.88
329.81	10.88
330.6	11.88
331.391	13.88
332.181	15.88
332.971	13.88
333.76	10.88
334.55	13.88
335.34	12.88
336.13	12.88
336.919	11.88
337.709	10.88
338.498	13.88
339.287	13.88
340.077	11.88
340.866	12.88
341.655	12.88
342.444	8.88
343.233	12.88
344.022	13.88
344.811	11.88
345.6	12.88
346.388	12.88
347.177	12.88
347.965	10.88
348.754	8.88
349.542	11.88
350.33	10.88
351.119	13.88
351.907	11.88
352.695	10.88
353.483	9.88
354.271	8.88
355.059	9.88
355.846	12.88
356.634	10.88
357.422	10.88
358.209	10.88
358.997	9.88
359.784	8.88
360.571	9.88
361.359	11.88
362.146	8.88
362.933	9.88
363.72	10.88
364.507	8.88
365.294	10.88
366.081	10.88
366.867	8.88
367.654	9.88
368.44	10.88
369.227	8.88
370.013	7.88
370.8	9.88
371.586	8.88
372.372	9.88
373.158	8.88
373.944	10.88
374.73	9.88
375.516	8.88
376.302	10.88
377.088	10.88
377.873	7.88
378.659	13.88
379.445	8.88
380.23	12.88
381.015	8.88
381.801	9.88
382.586	9.88
383.371	11.88
384.156	9.88
384.941	10.88
385.726	10.88
386.511	9.88
387.296	10.88
388.08	10.88
388.865	10.88
389.649	11.88
390.434	12.88
391.218	10.88
392.003	11.88
392.787	11.88
393.571	13.88
394.355	12.88
395.139	10.88
395.923	10.88
396.707	12.88
397.491	13.88
398.274	13.88
399.058	15.88
399.842	11.88
400.625	13.88
401.408	13.88
402.192	14.88
402.975	14.88
403.758	13.88
404.541	12.88
405.324	14.88
406.107	14.88
406.89	16.88
407.673	17.88
408.456	15.88
409.238	15.88
410.021	15.88
410.803	16.88
411.586	17.88
412.368	17.88
413.151	16.88
413.933	18.88
414.715	19.88
415.497	16.88
416.279	18.88
417.061	19.88
417.843	20.88
418.624	18.88
419.406	18.88
420.188	21.88
420.969	23.88
421.751	22.88
422.532	20.88
423.313	21.88
424.095	23.88
424.876	25.88
425.657	25.88
426.438	26.88
427.219	28.88
428	26.88
428.78	27.88
429.561	28.88
430.342	30.88
431.122	31.88
431.903	33.88
432.683	31.88
433.464	36.88
434.244	35.88
435.024	36.88
435.804	40.88
436.584	42.88
437.364	43.88
438.144	48.88
438.924	48.88
439.704	53.88
440.483	55.88
441.263	55.88
442.042	59.88
442.822	65.88
443.601	72.88
444.38	74.88
445.16	87.88
445.939	92.88
446.718	95.88
447.497	111.88
448.276	115.88
449.054	129.88
449.833	141.88
450.612	153.88
451.391	170.88
452.169	189.88
452.948	209.88
453.726	227.88
454.504	254.88
455.282	284.88
456.061	327.88
456.839	355.88
457.617	398.88
458.395	440.88
459.172	490.88
459.95	554.88
460.728	614.88
461.506	697.88
462.283	776.88
463.061	856.88
463.838	946.88
464.615	1070.88
465.393	1200.88
466.17	1328.88
466.947	1485.88
467.724	1652.88
468.501	1818.88
469.278	2038.88
470.055	2222.88
470.831	2479.88
471.608	2744.88
472.385	3026.88
473.161	3371.88
473.938	3700.88
474.714	4073.88
475.49	4465.88
476.266	4907.88
477.043	5400.88
477.819	5891.88
478.595	6487.88
479.371	7039.88
480.146	7761.88
480.922	8501.88
481.698	9269.88
482.473	10100.88
483.249	11018.88
484.024	11966.88
484.8	13063.88
485.575	14109.88
486.35	15414.88
487.126	16727.88
487.901	18087.88
488.676	19526.88
489.451	21187.88
490.225	22788.88
491	24416.88
491.775	26148.88
492.55	27949.88
493.324	29822.88
494.099	31680.88
494.873	33486.88
495.647	35389.88
496.422	37259.88
497.196	39205.88
497.97	40776.88
498.744	42276.88
499.518	43900.88
500.292	45250.88
501.066	46280.88
501.839	47071.88
502.613	47774.88
503.387	48347.88
504.16	48592.88
504.934	48567.88
505.707	48441.88
506.48	47850.88
507.253	47172.88
508.027	46361.88
508.8	45271.88
509.573	44141.88
510.346	42886.88
511.118	41704.88
511.891	40246.88
512.664	38759.88
513.437	37228.88
514.209	35702.88
514.982	34257.88
515.754	32866.88
516.526	31538.88
517.298	30193.88
518.071	29012.88
518.843	27852.88
519.615	26687.88
520.387	25730.88
521.159	24615.88
521.93	23580.88
522.702	22602.88
523.474	21629.88
524.245	20711.88
525.017	19808.88
525.788	18884.88
526.56	18121.88
527.331	17296.88
528.102	16357.88
528.873	15571.88
529.644	14807.88
530.415	14111.88
531.186	13435.88
531.957	12701.88
532.728	12021.88
533.498	11410.88
534.269	10785.88
535.039	10196.88
535.81	9622.88
536.58	9103.88
537.351	8610.88
538.121	8181.88
538.891	7720.88
539.661	7325.88
540.431	6903.88
541.201	6604.88
541.971	6206.88
542.741	5864.88
543.51	5605.88
544.28	5334.88
545.05	5058.88
545.819	4842.88
546.588	4596.88
547.358	4401.88
548.127	4161.88
548.896	3955.88
549.665	3737.88
550.434	3535.88
551.203	3341.88
551.972	3191.88
552.741	3015.88
553.51	2834.88
554.278	2678.88
555.047	2537.88
555.815	2384.88
556.584	2264.88
557.352	2117.88
558.121	2019.88
558.889	1884.88
559.657	1805.88
560.425	1690.88
561.193	1620.88
561.961	1523.88
562.729	1446.88
563.496	1369.88
564.264	1294.88
565.032	1215.88
565.799	1165.88
566.567	1097.88
567.334	1034.88
568.101	982.88
568.869	926.88
569.636	875.88
570.403	828.88
571.17	774.88
571.937	734.88
572.704	678.88
573.471	658.88
574.237	616.88
575.004	579.88
575.771	545.88
576.537	508.88
577.303	484.88
578.07	458.88
578.836	435.88
579.602	406.88
580.368	389.88
581.134	365.88
581.9	348.88
582.666	332.88
583.432	321.88
584.198	302.88
584.964	289.88
585.729	276.88
586.495	259.88
587.26	247.88
588.025	234.88
588.791	216.88
589.556	202.88
590.321	200.88
591.086	190.88
591.851	182.88
592.616	175.88
593.381	165.88
594.146	158.88
594.911	149.88
595.675	145.88
596.44	139.88
597.204	125.88
597.969	125.88
598.733	113.88
599.497	114.88
600.261	111.88
601.025	103.88
601.79	96.88
602.553	94.88
603.317	94.88
604.081	88.88
604.845	89.88
605.609	81.88
606.372	77.88
607.136	75.88
607.899	70.88
608.662	69.88
609.426	67.88
610.189	66.88
610.952	58.88
611.715	58.88
612.478	57.88
613.241	55.88
614.004	51.88
614.767	52.88
615.529	52.88
616.292	46.88
617.055	49.88
617.817	46.88
618.579	41.88
619.342	42.88
620.104	39.88
620.866	39.88
621.628	35.88
622.39	36.88
623.152	37.88
623.914	35.88
624.676	33.88
625.438	31.88
626.199	31.88
626.961	32.88
627.722	30.88
628.484	29.88
629.245	28.88
630.006	25.88
630.768	26.88
631.529	26.88
632.29	25.88
633.051	23.88
633.812	26.88
634.573	21.88
635.333	24.88
636.094	22.88
636.855	21.88
637.615	22.88
638.376	18.88
639.136	21.88
639.896	19.88
640.657	15.88
641.417	21.88
642.177	18.88
642.937	18.88
643.697	15.88
644.457	18.88
645.216	14.88
645.976	14.88
646.736	15.88
647.495	13.88
648.255	18.88
649.014	14.88
649.774	17.88
650.533	13.88
651.292	13.88
652.051	14.88
652.81	12.88
653.569	14.88
654.328	11.88
655.087	12.88
655.846	12.88
656.604	11.88
657.363	12.88
658.121	11.88
658.88	13.88
659.638	9.88
660.397	11.88
661.155	9.88
661.913	10.88
662.671	10.88
663.429	11.88
664.187	9.88
664.945	9.88
665.703	10.88
666.46	9.88
667.218	8.88
667.976	11.88
668.733	9.88
669.49	7.88
670.248	10.88
671.005	7.88
671.762	7.88
672.519	10.88
673.276	10.88
674.033	9.88
674.79	9.88
675.547	9.88
676.304	7.88
677.06	10.88
677.817	6.88
678.574	7.88
679.33	7.88
680.086	6.88
680.843	8.88
681.599	9.88
682.355	8.88
683.111	6.88
683.867	7.88
684.623	10.88
685.379	9.88
686.135	10.88
686.89	9.88
687.646	9.88
688.402	7.88
689.157	6.88
689.912	8.88
690.668	6.88
691.423	7.88
692.178	8.88
692.933	6.88
693.688	7.88
694.443	4.88
695.198	7.88
695.953	8.88
696.708	8.88
697.462	9.88
698.217	7.88
698.972	7.88
699.726	6.88
700.48	8.88
701.235	5.88
701.989	7.88
702.743	7.88
703.497	6.88
704.251	6.88
705.005	4.88
705.759	8.88
706.513	7.88
707.266	10.88
708.02	6.88
708.774	7.88
709.527	6.88
710.28	8.88
711.034	7.88
711.787	7.88
712.54	6.88
713.293	7.88
714.046	8.88
714.799	7.88
715.552	7.88
716.305	9.88
717.058	5.88
717.81	7.88
718.563	7.88
719.315	6.88
720.068	8.88
720.82	9.88
721.573	7.88
722.325	10.88
723.077	8.88
723.829	9.88
724.581	9.88
725.333	10.88
726.085	8.88
726.836	7.88
727.588	9.88
728.34	7.88
729.091	8.88
729.843	8.88
730.594	8.88
731.346	11.88
732.097	10.88
732.848	8.88
733.599	10.88
734.35	9.88
735.101	9.88
735.852	8.88
736.603	11.88
737.354	9.88
738.104	8.88
738.855	9.88
739.605	9.88
740.356	11.88
741.106	9.88
741.856	10.88
742.607	9.88
743.357	8.88
744.107	10.88
744.857	8.88
745.607	11.88
746.357	7.88
747.106	10.88
747.856	10.88
748.606	10.88
749.355	12.88
750.105	9.88
750.854	12.88
751.603	12.88
752.353	11.88
753.102	10.88
753.851	9.88
754.6	14.88
755.349	12.88
756.098	11.88
756.847	10.88
757.595	12.88
758.344	12.88
759.093	11.88
759.841	12.88
760.589	10.88
761.338	14.88
762.086	13.88
762.834	9.88
763.582	10.88
764.331	12.88
765.079	14.88
765.826	14.88
766.574	13.88
767.322	14.88
768.07	12.88
768.817	14.88
769.565	13.88
770.312	15.88
771.06	17.88
771.807	13.88
772.554	19.88
773.302	14.88
774.049	17.88
774.796	14.88
775.543	16.88
776.29	15.88
777.036	14.88
777.783	16.88
778.53	16.88
779.276	14.88
780.023	17.88
780.769	15.88
781.516	16.88
782.262	17.88
783.008	18.88
783.754	16.88
784.5	18.88
785.246	16.88
785.992	18.88
786.738	17.88
787.484	15.88
788.23	15.88
788.975	14.88
789.721	13.88
790.466	12.88
791.212	16.88
791.957	13.88
792.702	18.88
793.447	16.88
794.193	13.88
794.938	13.88
795.683	12.88
796.427	12.88
797.172	14.88
797.917	13.88
798.662	12.88
799.406	12.88
800.151	11.88
800.895	12.88
801.64	12.88
802.384	10.88
803.128	10.88
803.872	12.88
804.616	13.88
805.36	8.88
806.104	10.88
806.848	12.88
807.592	10.88
808.336	11.88
809.079	9.88
809.823	8.88
810.566	8.88
811.31	10.88
812.053	7.88
812.796	8.88
813.539	8.88
814.283	10.88
815.026	8.88
815.769	5.88
816.511	8.88
817.254	7.88
817.997	7.88
818.74	5.88
819.482	10.88
820.225	7.88
820.967	7.88
821.71	7.88
822.452	5.88
823.194	5.88
823.936	7.88
824.678	7.88
825.42	7.88
826.162	9.88
826.904	4.88
827.646	8.88
828.388	5.88
829.129	6.88
829.871	4.88
830.612	6.88
831.354	7.88
832.095	5.88
832.836	5.88
833.577	5.88
834.319	5.88
835.06	7.88
835.801	7.88
836.542	5.88
837.282	4.88
838.023	5.88
838.764	5.88
839.504	5.88
840.245	3.88
840.985	4.88
841.726	4.88
842.466	5.88
843.206	4.88
843.946	5.88
844.687	2.88
845.427	2.88
846.166	5.88
846.906	4.88
847.646	5.88
848.386	5.88
849.125	5.88
849.865	4.88
850.605	5.88
851.344	1.88
852.083	5.88
852.823	6.88
853.562	2.88
854.301	0.88
855.04	3.88
855.779	4.88
856.518	3.88
857.257	4.88
857.995	3.88
858.734	3.88
859.473	3.88
860.211	2.88
860.95	3.88
861.688	2.88
862.426	4.88
863.165	2.88
863.903	3.88
864.641	2.88
865.379	2.88
866.117	6.88
866.855	2.88
867.593	0.88
868.33	3.88
869.068	2.88
869.806	1.88
870.543	2.88
871.28	0.88
872.018	2.88
872.755	-1.12
873.492	2.88
874.229	2.88
874.967	1.88
875.703	1.88
876.44	3.88
877.177	0.88
877.914	1.88
878.651	2.88
879.387	1.88
880.124	2.88
880.86	-0.12
881.597	0.88
882.333	1.88
883.069	2.88
883.806	1.88
884.542	1.88
885.278	0.88
886.014	3.88
886.749	1.88
887.485	1.88
888.221	2.88
888.957	1.88
889.692	1.88
890.428	1.88
891.163	3.88
891.899	0.88
892.634	2.88
893.369	0.88
894.104	1.88
894.839	2.88
895.574	0.88
896.309	0.88
897.044	0.88
897.779	0.88
898.514	0.88
899.248	0.88
899.983	1.88
900.717	-0.12
901.452	2.88
902.186	0.88
902.92	0.88
903.654	-0.12
904.389	-1.12
905.123	0.88
905.857	0.88
906.59	-0.12
907.324	0.88
908.058	0.88
908.792	1.88
909.525	0.88
910.259	2.88
910.992	0.88
911.726	-0.12
912.459	0.88
913.192	0.88
913.925	1.88
914.658	-0.12
915.391	-1.12
916.124	-0.12
916.857	-1.12
917.59	-1.12
918.323	0.88
919.055	1.88
919.788	-1.12
920.521	4.88
921.253	1.88
921.985	0.88
922.718	1.88
923.45	1.88
924.182	-0.12
924.914	2.88
925.646	-1.12
926.378	0.88
927.11	0.88
927.841	-0.12
928.573	0.88
929.305	1.88
930.036	0.88
930.768	-1.12
931.499	1.88
932.23	-1.12
932.962	1.88
933.693	0.88
934.424	-0.12
935.155	0.88
935.886	-0.12
936.617	1.88
937.348	-1.12
938.078	-0.12
938.809	-0.12
939.54	-0.12
940.27	0.88
941.001	-0.12
941.731	3.88
942.461	0.88
943.191	-0.12
943.922	0.88
944.652	-0.12
945.382	-0.12
946.112	-0.12
946.841	1.88
947.571	-1.12
948.301	-0.12
949.031	0.88
949.76	0.88
950.49	-0.12
951.219	-1.12
951.948	-0.12
952.678	-1.12
953.407	0.88
954.136	1.88
954.865	-1.12
955.594	-0.12
956.323	0.88
957.052	0.88
957.78	1.88
958.509	0.88
959.238	2.88
959.966	-1.12
960.695	-1.12
961.423	-2.12
962.151	-0.12
962.88	1.88
963.608	-0.12
964.336	-0.12
965.064	0.88
965.792	0.88
966.52	0.88
967.247	0.88
967.975	0.88
968.703	-0.12
969.43	-0.12
970.158	0.88
970.885	-0.12
971.613	2.88
972.34	-0.12
973.067	0.88
973.794	1.88
974.521	1.88
975.248	-1.12
975.975	-0.12
976.702	1.88
977.429	-2.12
978.156	-0.12
978.882	1.88
979.609	-0.12
980.335	0.88
981.062	-1.12
981.788	-0.12
982.514	0.88
983.24	-1.12
983.967	-2.12
984.693	-0.12
985.419	1.88
986.144	-0.12
986.87	1.88
987.596	0.88
988.322	-1.12
989.047	-0.12
989.773	0.88
990.498	-1.12
991.224	-0.12
991.949	0.88
992.674	-0.12
993.399	-0.12
994.124	1.88
994.849	-0.12
995.574	-0.12
996.299	-0.12
997.024	1.88
997.749	-0.12
998.473	1.88
999.198	-0.12
999.922	-1.12
1000.647	0.88
1001.371	3.88
1002.095	-0.12
1002.82	-0.12
1003.544	-2.12
1004.268	4.88
1004.992	4.88
1005.716	0.88
1006.439	5.88
1007.163	7.88
1007.887	4.88
1008.611	1.88
1009.334	0.88
1010.058	-0.12
1010.781	-3.12
1011.504	0.88
1012.228	1.88
1012.951	-1.12
1013.674	0.88
1014.397	-2.12
1015.12	0.88
