节点500_705_QEPB04081__285__20-50-02-426.txt的数据

Date: Wed Nov 12 20:50:02 CST 2025
User: PC
Spectrometer: QEPB0408
触发模式: 0
积分时间 (秒): 1.000000E-2
Scans to average: 1
启用暗噪声校正: true
启用非线性校正: false
滑动平均宽度: 0
X轴模式: Wavelengths
Number of Pixels in Spectrum: 1044
>>>>>Begin Spectral Data<<<<<
220.843	4.38
221.644	4.38
222.444	6.38
223.244	6.38
224.045	6.38
224.845	6.38
225.645	5.38
226.445	4.38
227.245	8.38
228.045	4.38
228.845	6.38
229.645	7.38
230.444	8.38
231.244	8.38
232.043	7.38
232.843	8.38
233.642	10.38
234.442	12.38
235.241	11.38
236.04	9.38
236.839	8.38
237.638	10.38
238.437	12.38
239.236	10.38
240.035	11.38
240.833	12.38
241.632	10.38
242.43	13.38
243.229	9.38
244.027	14.38
244.826	11.38
245.624	13.38
246.422	11.38
247.22	14.38
248.018	14.38
248.816	13.38
249.614	14.38
250.412	15.38
251.21	18.38
252.007	16.38
252.805	16.38
253.602	19.38
254.4	16.38
255.197	20.38
255.994	18.38
256.791	18.38
257.589	21.38
258.386	19.38
259.183	21.38
259.979	23.38
260.776	24.38
261.573	21.38
262.37	23.38
263.166	21.38
263.963	21.38
264.759	21.38
265.556	26.38
266.352	29.38
267.148	25.38
267.944	27.38
268.74	32.38
269.536	29.38
270.332	30.38
271.128	28.38
271.924	28.38
272.719	29.38
273.515	27.38
274.311	34.38
275.106	32.38
275.901	32.38
276.697	33.38
277.492	32.38
278.287	33.38
279.082	35.38
279.877	31.38
280.672	37.38
281.467	35.38
282.262	33.38
283.056	35.38
283.851	36.38
284.646	33.38
285.44	31.38
286.234	34.38
287.029	31.38
287.823	31.38
288.617	34.38
289.411	31.38
290.205	30.38
290.999	33.38
291.793	33.38
292.587	27.38
293.381	31.38
294.174	29.38
294.968	30.38
295.761	27.38
296.555	23.38
297.348	26.38
298.141	25.38
298.935	26.38
299.728	26.38
300.521	27.38
301.314	20.38
302.107	22.38
302.899	22.38
303.692	23.38
304.485	24.38
305.277	21.38
306.07	21.38
306.862	23.38
307.655	22.38
308.447	21.38
309.239	19.38
310.031	19.38
310.823	19.38
311.615	17.38
312.407	19.38
313.199	14.38
313.991	16.38
314.783	20.38
315.574	14.38
316.366	17.38
317.157	14.38
317.949	12.38
318.74	16.38
319.531	14.38
320.322	12.38
321.113	13.38
321.904	14.38
322.695	13.38
323.486	12.38
324.277	13.38
325.068	10.38
325.858	13.38
326.649	10.38
327.439	14.38
328.23	11.38
329.02	12.38
329.81	13.38
330.6	10.38
331.391	11.38
332.181	12.38
332.971	12.38
333.76	12.38
334.55	11.38
335.34	10.38
336.13	12.38
336.919	14.38
337.709	12.38
338.498	10.38
339.287	10.38
340.077	10.38
340.866	11.38
341.655	12.38
342.444	11.38
343.233	11.38
344.022	9.38
344.811	13.38
345.6	10.38
346.388	12.38
347.177	10.38
347.965	10.38
348.754	11.38
349.542	12.38
350.33	10.38
351.119	12.38
351.907	10.38
352.695	10.38
353.483	8.38
354.271	10.38
355.059	8.38
355.846	14.38
356.634	7.38
357.422	8.38
358.209	11.38
358.997	9.38
359.784	11.38
360.571	9.38
361.359	10.38
362.146	12.38
362.933	9.38
363.72	12.38
364.507	10.38
365.294	7.38
366.081	8.38
366.867	13.38
367.654	10.38
368.44	9.38
369.227	6.38
370.013	11.38
370.8	12.38
371.586	9.38
372.372	11.38
373.158	9.38
373.944	8.38
374.73	9.38
375.516	9.38
376.302	11.38
377.088	11.38
377.873	8.38
378.659	8.38
379.445	9.38
380.23	11.38
381.015	8.38
381.801	7.38
382.586	9.38
383.371	7.38
384.156	9.38
384.941	9.38
385.726	9.38
386.511	12.38
387.296	11.38
388.08	11.38
388.865	11.38
389.649	13.38
390.434	10.38
391.218	10.38
392.003	9.38
392.787	11.38
393.571	14.38
394.355	11.38
395.139	8.38
395.923	13.38
396.707	14.38
397.491	12.38
398.274	13.38
399.058	10.38
399.842	14.38
400.625	15.38
401.408	13.38
402.192	11.38
402.975	16.38
403.758	12.38
404.541	13.38
405.324	13.38
406.107	14.38
406.89	12.38
407.673	14.38
408.456	15.38
409.238	15.38
410.021	19.38
410.803	16.38
411.586	15.38
412.368	15.38
413.151	14.38
413.933	18.38
414.715	18.38
415.497	17.38
416.279	15.38
417.061	19.38
417.843	20.38
418.624	18.38
419.406	18.38
420.188	21.38
420.969	20.38
421.751	21.38
422.532	22.38
423.313	24.38
424.095	25.38
424.876	23.38
425.657	28.38
426.438	28.38
427.219	24.38
428	28.38
428.78	27.38
429.561	30.38
430.342	27.38
431.122	29.38
431.903	30.38
432.683	35.38
433.464	36.38
434.244	37.38
435.024	35.38
435.804	36.38
436.584	40.38
437.364	43.38
438.144	49.38
438.924	52.38
439.704	48.38
440.483	55.38
441.263	58.38
442.042	65.38
442.822	70.38
443.601	78.38
444.38	80.38
445.16	86.38
445.939	92.38
446.718	101.38
447.497	111.38
448.276	120.38
449.054	133.38
449.833	145.38
450.612	157.38
451.391	174.38
452.169	196.38
452.948	207.38
453.726	234.38
454.504	262.38
455.282	289.38
456.061	323.38
456.839	360.38
457.617	407.38
458.395	455.38
459.172	500.38
459.95	561.38
460.728	629.38
461.506	704.38
462.283	779.38
463.061	880.38
463.838	970.38
464.615	1073.38
465.393	1210.38
466.17	1338.38
466.947	1507.38
467.724	1647.38
468.501	1842.38
469.278	2030.38
470.055	2248.38
470.831	2497.38
471.608	2763.38
472.385	3048.38
473.161	3353.38
473.938	3682.38
474.714	4045.38
475.49	4448.38
476.266	4873.38
477.043	5330.38
477.819	5828.38
478.595	6382.38
479.371	7013.38
480.146	7584.38
480.922	8345.38
481.698	9044.38
482.473	9912.38
483.249	10763.38
484.024	11736.38
484.8	12708.38
485.575	13781.38
486.35	14958.38
487.126	16233.38
487.901	17495.38
488.676	18944.38
489.451	20409.38
490.225	21952.38
491	23615.38
491.775	25238.38
492.55	26948.38
493.324	28756.38
494.099	30513.38
494.873	32333.38
495.647	34082.38
496.422	35974.38
497.196	37753.38
497.97	39436.38
498.744	40952.38
499.518	42450.38
500.292	43884.38
501.066	44921.38
501.839	45847.38
502.613	46511.38
503.387	47049.38
504.16	47485.38
504.934	47580.38
505.707	47479.38
506.48	47148.38
507.253	46492.38
508.027	45703.38
508.8	44878.38
509.573	43713.38
510.346	42637.38
511.118	41512.38
511.891	40230.38
512.664	38759.38
513.437	37184.38
514.209	35783.38
514.982	34438.38
515.754	33019.38
516.526	31670.38
517.298	30378.38
518.071	29143.38
518.843	28002.38
519.615	26945.38
520.387	25898.38
521.159	24834.38
521.93	23787.38
522.702	22782.38
523.474	21878.38
524.245	20876.38
525.017	19967.38
525.788	19091.38
526.56	18230.38
527.331	17478.38
528.102	16507.38
528.873	15745.38
529.644	14973.38
530.415	14281.38
531.186	13597.38
531.957	12911.38
532.728	12192.38
533.498	11527.38
534.269	10974.38
535.039	10339.38
535.81	9852.38
536.58	9262.38
537.351	8786.38
538.121	8352.38
538.891	7888.38
539.661	7448.38
540.431	7090.38
541.201	6676.38
541.971	6308.38
542.741	6000.38
543.51	5669.38
544.28	5441.38
545.05	5168.38
545.819	4929.38
546.588	4684.38
547.358	4499.38
548.127	4251.38
548.896	4041.38
549.665	3830.38
550.434	3607.38
551.203	3434.38
551.972	3249.38
552.741	3059.38
553.51	2891.38
554.278	2744.38
555.047	2596.38
555.815	2435.38
556.584	2291.38
557.352	2177.38
558.121	2061.38
558.889	1930.38
559.657	1850.38
560.425	1748.38
561.193	1644.38
561.961	1563.38
562.729	1473.38
563.496	1389.38
564.264	1319.38
565.032	1242.38
565.799	1170.38
566.567	1131.38
567.334	1046.38
568.101	993.38
568.869	953.38
569.636	894.38
570.403	847.38
571.17	791.38
571.937	744.38
572.704	712.38
573.471	666.38
574.237	621.38
575.004	597.38
575.771	557.38
576.537	535.38
577.303	498.38
578.07	473.38
578.836	442.38
579.602	416.38
580.368	391.38
581.134	364.38
581.9	365.38
582.666	340.38
583.432	328.38
584.198	311.38
584.964	293.38
585.729	274.38
586.495	263.38
587.26	253.38
588.025	234.38
588.791	223.38
589.556	214.38
590.321	204.38
591.086	196.38
591.851	182.38
592.616	175.38
593.381	169.38
594.146	161.38
594.911	147.38
595.675	145.38
596.44	139.38
597.204	128.38
597.969	122.38
598.733	117.38
599.497	115.38
600.261	109.38
601.025	104.38
601.79	99.38
602.553	99.38
603.317	97.38
604.081	88.38
604.845	87.38
605.609	81.38
606.372	79.38
607.136	81.38
607.899	78.38
608.662	68.38
609.426	68.38
610.189	67.38
610.952	65.38
611.715	63.38
612.478	60.38
613.241	54.38
614.004	54.38
614.767	52.38
615.529	51.38
616.292	50.38
617.055	47.38
617.817	45.38
618.579	45.38
619.342	47.38
620.104	44.38
620.866	41.38
621.628	40.38
622.39	40.38
623.152	35.38
623.914	34.38
624.676	33.38
625.438	31.38
626.199	32.38
626.961	31.38
627.722	28.38
628.484	30.38
629.245	28.38
630.006	28.38
630.768	29.38
631.529	26.38
632.29	29.38
633.051	24.38
633.812	24.38
634.573	19.38
635.333	18.38
636.094	22.38
636.855	20.38
637.615	21.38
638.376	19.38
639.136	19.38
639.896	18.38
640.657	17.38
641.417	19.38
642.177	18.38
642.937	16.38
643.697	18.38
644.457	16.38
645.216	17.38
645.976	18.38
646.736	13.38
647.495	14.38
648.255	16.38
649.014	16.38
649.774	14.38
650.533	13.38
651.292	17.38
652.051	11.38
652.81	15.38
653.569	15.38
654.328	11.38
655.087	13.38
655.846	10.38
656.604	14.38
657.363	10.38
658.121	8.38
658.88	10.38
659.638	9.38
660.397	12.38
661.155	9.38
661.913	10.38
662.671	9.38
663.429	11.38
664.187	10.38
664.945	7.38
665.703	10.38
666.46	9.38
667.218	11.38
667.976	8.38
668.733	10.38
669.49	10.38
670.248	10.38
671.005	10.38
671.762	10.38
672.519	9.38
673.276	9.38
674.033	8.38
674.79	8.38
675.547	10.38
676.304	10.38
677.06	9.38
677.817	9.38
678.574	6.38
679.33	7.38
680.086	9.38
680.843	8.38
681.599	6.38
682.355	7.38
683.111	9.38
683.867	8.38
684.623	7.38
685.379	7.38
686.135	7.38
686.89	6.38
687.646	8.38
688.402	7.38
689.157	7.38
689.912	8.38
690.668	9.38
691.423	5.38
692.178	7.38
692.933	10.38
693.688	8.38
694.443	7.38
695.198	6.38
695.953	5.38
696.708	7.38
697.462	7.38
698.217	8.38
698.972	7.38
699.726	7.38
700.48	6.38
701.235	6.38
701.989	7.38
702.743	6.38
703.497	9.38
704.251	9.38
705.005	6.38
705.759	10.38
706.513	7.38
707.266	5.38
708.02	5.38
708.774	8.38
709.527	6.38
710.28	8.38
711.034	10.38
711.787	8.38
712.54	7.38
713.293	5.38
714.046	8.38
714.799	7.38
715.552	9.38
716.305	7.38
717.058	6.38
717.81	9.38
718.563	10.38
719.315	7.38
720.068	8.38
720.82	6.38
721.573	5.38
722.325	7.38
723.077	6.38
723.829	9.38
724.581	7.38
725.333	4.38
726.085	5.38
726.836	10.38
727.588	8.38
728.34	7.38
729.091	9.38
729.843	8.38
730.594	9.38
731.346	9.38
732.097	6.38
732.848	11.38
733.599	6.38
734.35	8.38
735.101	8.38
735.852	8.38
736.603	9.38
737.354	7.38
738.104	8.38
738.855	9.38
739.605	8.38
740.356	9.38
741.106	9.38
741.856	11.38
742.607	9.38
743.357	14.38
744.107	7.38
744.857	12.38
745.607	9.38
746.357	10.38
747.106	8.38
747.856	9.38
748.606	9.38
749.355	9.38
750.105	12.38
750.854	10.38
751.603	11.38
752.353	12.38
753.102	9.38
753.851	12.38
754.6	12.38
755.349	10.38
756.098	13.38
756.847	11.38
757.595	11.38
758.344	12.38
759.093	11.38
759.841	15.38
760.589	12.38
761.338	13.38
762.086	12.38
762.834	10.38
763.582	12.38
764.331	13.38
765.079	13.38
765.826	14.38
766.574	14.38
767.322	13.38
768.07	11.38
768.817	14.38
769.565	16.38
770.312	14.38
771.06	14.38
771.807	15.38
772.554	14.38
773.302	13.38
774.049	14.38
774.796	14.38
775.543	15.38
776.29	14.38
777.036	16.38
777.783	14.38
778.53	12.38
779.276	16.38
780.023	14.38
780.769	16.38
781.516	16.38
782.262	14.38
783.008	14.38
783.754	18.38
784.5	17.38
785.246	16.38
785.992	15.38
786.738	16.38
787.484	13.38
788.23	14.38
788.975	13.38
789.721	14.38
790.466	15.38
791.212	15.38
791.957	16.38
792.702	14.38
793.447	15.38
794.193	12.38
794.938	14.38
795.683	13.38
796.427	12.38
797.172	12.38
797.917	12.38
798.662	15.38
799.406	9.38
800.151	11.38
800.895	11.38
801.64	11.38
802.384	12.38
803.128	11.38
803.872	9.38
804.616	14.38
805.36	12.38
806.104	11.38
806.848	12.38
807.592	11.38
808.336	10.38
809.079	12.38
809.823	8.38
810.566	10.38
811.31	8.38
812.053	7.38
812.796	9.38
813.539	8.38
814.283	7.38
815.026	7.38
815.769	7.38
816.511	8.38
817.254	7.38
817.997	6.38
818.74	7.38
819.482	6.38
820.225	6.38
820.967	7.38
821.71	7.38
822.452	6.38
823.194	5.38
823.936	9.38
824.678	8.38
825.42	6.38
826.162	4.38
826.904	8.38
827.646	3.38
828.388	6.38
829.129	6.38
829.871	7.38
830.612	5.38
831.354	5.38
832.095	9.38
832.836	7.38
833.577	7.38
834.319	6.38
835.06	6.38
835.801	5.38
836.542	2.38
837.282	9.38
838.023	2.38
838.764	6.38
839.504	7.38
840.245	4.38
840.985	6.38
841.726	7.38
842.466	3.38
843.206	4.38
843.946	3.38
844.687	4.38
845.427	5.38
846.166	6.38
846.906	4.38
847.646	4.38
848.386	3.38
849.125	3.38
849.865	6.38
850.605	6.38
851.344	6.38
852.083	4.38
852.823	4.38
853.562	4.38
854.301	3.38
855.04	4.38
855.779	2.38
856.518	6.38
857.257	2.38
857.995	3.38
858.734	4.38
859.473	3.38
860.211	3.38
860.95	4.38
861.688	5.38
862.426	2.38
863.165	1.38
863.903	2.38
864.641	1.38
865.379	4.38
866.117	3.38
866.855	2.38
867.593	2.38
868.33	2.38
869.068	2.38
869.806	4.38
870.543	1.38
871.28	3.38
872.018	0.38
872.755	0.38
873.492	2.38
874.229	2.38
874.967	2.38
875.703	2.38
876.44	3.38
877.177	2.38
877.914	0.38
878.651	1.38
879.387	2.38
880.124	2.38
880.86	0.38
881.597	2.38
882.333	-0.62
883.069	2.38
883.806	-0.62
884.542	2.38
885.278	1.38
886.014	0.38
886.749	2.38
887.485	1.38
888.221	0.38
888.957	1.38
889.692	0.38
890.428	2.38
891.163	-0.62
891.899	1.38
892.634	0.38
893.369	-0.62
894.104	-1.62
894.839	-0.62
895.574	0.38
896.309	1.38
897.044	2.38
897.779	0.38
898.514	-1.62
899.248	0.38
899.983	0.38
900.717	2.38
901.452	-1.62
902.186	1.38
902.92	-0.62
903.654	2.38
904.389	2.38
905.123	0.38
905.857	-0.62
906.59	1.38
907.324	0.38
908.058	-0.62
908.792	-0.62
909.525	0.38
910.259	2.38
910.992	0.38
911.726	-1.62
912.459	-1.62
913.192	-1.62
913.925	-1.62
914.658	1.38
915.391	0.38
916.124	-1.62
916.857	2.38
917.59	0.38
918.323	1.38
919.055	0.38
919.788	0.38
920.521	-1.62
921.253	-1.62
921.985	1.38
922.718	-0.62
923.45	0.38
924.182	0.38
924.914	-0.62
925.646	-0.62
926.378	-0.62
927.11	2.38
927.841	0.38
928.573	-1.62
929.305	-0.62
930.036	-0.62
930.768	1.38
931.499	1.38
932.23	1.38
932.962	1.38
933.693	-0.62
934.424	1.38
935.155	0.38
935.886	1.38
936.617	-0.62
937.348	1.38
938.078	-1.62
938.809	-1.62
939.54	0.38
940.27	0.38
941.001	1.38
941.731	-0.62
942.461	-0.62
943.191	1.38
943.922	-0.62
944.652	0.38
945.382	2.38
946.112	0.38
946.841	-1.62
947.571	-1.62
948.301	1.38
949.031	0.38
949.76	1.38
950.49	-0.62
951.219	0.38
951.948	0.38
952.678	-1.62
953.407	-1.62
954.136	1.38
954.865	-0.62
955.594	1.38
956.323	1.38
957.052	1.38
957.78	0.38
958.509	1.38
959.238	2.38
959.966	-1.62
960.695	-0.62
961.423	1.38
962.151	-1.62
962.88	0.38
963.608	1.38
964.336	0.38
965.064	-2.62
965.792	-0.62
966.52	-2.62
967.247	1.38
967.975	1.38
968.703	0.38
969.43	-0.62
970.158	0.38
970.885	0.38
971.613	-1.62
972.34	1.38
973.067	0.38
973.794	0.38
974.521	-2.62
975.248	-1.62
975.975	0.38
976.702	0.38
977.429	1.38
978.156	2.38
978.882	-1.62
979.609	2.38
980.335	-0.62
981.062	-0.62
981.788	0.38
982.514	-1.62
983.24	-1.62
983.967	-1.62
984.693	1.38
985.419	1.38
986.144	1.38
986.87	-1.62
987.596	0.38
988.322	3.38
989.047	0.38
989.773	0.38
990.498	0.38
991.224	-0.62
991.949	-0.62
992.674	-0.62
993.399	1.38
994.124	0.38
994.849	0.38
995.574	0.38
996.299	1.38
997.024	-0.62
997.749	-1.62
998.473	0.38
999.198	0.38
999.922	1.38
1000.647	-0.62
1001.371	4.38
1002.095	-0.62
1002.82	-1.62
1003.544	0.38
1004.268	4.38
1004.992	6.38
1005.716	4.38
1006.439	5.38
1007.163	3.38
1007.887	7.38
1008.611	-0.62
1009.334	1.38
1010.058	-0.62
1010.781	0.38
1011.504	-1.62
1012.228	0.38
1012.951	-0.62
1013.674	-0.62
1014.397	-0.62
1015.12	-0.62
