节点500_705_QEPB04081__227__20-49-08-472.txt的数据

Date: Wed Nov 12 20:49:08 CST 2025
User: PC
Spectrometer: QEPB0408
触发模式: 0
积分时间 (秒): 1.000000E-2
Scans to average: 1
启用暗噪声校正: true
启用非线性校正: false
滑动平均宽度: 0
X轴模式: Wavelengths
Number of Pixels in Spectrum: 1044
>>>>>Begin Spectral Data<<<<<
220.843	8.25
221.644	3.25
222.444	7.25
223.244	7.25
224.045	6.25
224.845	6.25
225.645	7.25
226.445	6.25
227.245	6.25
228.045	9.25
228.845	7.25
229.645	9.25
230.444	8.25
231.244	6.25
232.043	10.25
232.843	6.25
233.642	9.25
234.442	11.25
235.241	11.25
236.04	11.25
236.839	9.25
237.638	10.25
238.437	10.25
239.236	13.25
240.035	11.25
240.833	11.25
241.632	13.25
242.43	12.25
243.229	15.25
244.027	13.25
244.826	12.25
245.624	15.25
246.422	13.25
247.22	18.25
248.018	11.25
248.816	13.25
249.614	15.25
250.412	16.25
251.21	19.25
252.007	20.25
252.805	20.25
253.602	19.25
254.4	19.25
255.197	19.25
255.994	22.25
256.791	20.25
257.589	21.25
258.386	23.25
259.183	23.25
259.979	24.25
260.776	24.25
261.573	23.25
262.37	26.25
263.166	23.25
263.963	27.25
264.759	29.25
265.556	28.25
266.352	27.25
267.148	29.25
267.944	28.25
268.74	32.25
269.536	33.25
270.332	32.25
271.128	30.25
271.924	33.25
272.719	32.25
273.515	34.25
274.311	38.25
275.106	33.25
275.901	37.25
276.697	37.25
277.492	36.25
278.287	34.25
279.082	38.25
279.877	37.25
280.672	32.25
281.467	39.25
282.262	34.25
283.056	33.25
283.851	36.25
284.646	35.25
285.44	36.25
286.234	31.25
287.029	35.25
287.823	36.25
288.617	31.25
289.411	37.25
290.205	36.25
290.999	34.25
291.793	31.25
292.587	32.25
293.381	31.25
294.174	31.25
294.968	27.25
295.761	25.25
296.555	27.25
297.348	27.25
298.141	28.25
298.935	27.25
299.728	29.25
300.521	26.25
301.314	24.25
302.107	25.25
302.899	24.25
303.692	21.25
304.485	23.25
305.277	22.25
306.07	23.25
306.862	24.25
307.655	22.25
308.447	24.25
309.239	18.25
310.031	19.25
310.823	16.25
311.615	21.25
312.407	20.25
313.199	20.25
313.991	19.25
314.783	16.25
315.574	17.25
316.366	14.25
317.157	17.25
317.949	15.25
318.74	14.25
319.531	16.25
320.322	16.25
321.113	11.25
321.904	14.25
322.695	13.25
323.486	17.25
324.277	14.25
325.068	14.25
325.858	13.25
326.649	13.25
327.439	13.25
328.23	14.25
329.02	14.25
329.81	14.25
330.6	14.25
331.391	10.25
332.181	13.25
332.971	11.25
333.76	13.25
334.55	12.25
335.34	13.25
336.13	12.25
336.919	13.25
337.709	10.25
338.498	13.25
339.287	11.25
340.077	14.25
340.866	11.25
341.655	11.25
342.444	10.25
343.233	12.25
344.022	11.25
344.811	11.25
345.6	14.25
346.388	11.25
347.177	10.25
347.965	11.25
348.754	10.25
349.542	13.25
350.33	12.25
351.119	11.25
351.907	9.25
352.695	11.25
353.483	13.25
354.271	12.25
355.059	10.25
355.846	11.25
356.634	10.25
357.422	11.25
358.209	8.25
358.997	12.25
359.784	10.25
360.571	11.25
361.359	13.25
362.146	8.25
362.933	11.25
363.72	12.25
364.507	10.25
365.294	11.25
366.081	9.25
366.867	11.25
367.654	8.25
368.44	11.25
369.227	11.25
370.013	8.25
370.8	11.25
371.586	10.25
372.372	10.25
373.158	11.25
373.944	10.25
374.73	12.25
375.516	10.25
376.302	10.25
377.088	10.25
377.873	8.25
378.659	9.25
379.445	8.25
380.23	10.25
381.015	10.25
381.801	9.25
382.586	10.25
383.371	11.25
384.156	13.25
384.941	12.25
385.726	11.25
386.511	10.25
387.296	11.25
388.08	11.25
388.865	11.25
389.649	13.25
390.434	11.25
391.218	13.25
392.003	12.25
392.787	10.25
393.571	10.25
394.355	14.25
395.139	11.25
395.923	10.25
396.707	14.25
397.491	12.25
398.274	13.25
399.058	15.25
399.842	13.25
400.625	13.25
401.408	14.25
402.192	15.25
402.975	13.25
403.758	12.25
404.541	16.25
405.324	16.25
406.107	18.25
406.89	14.25
407.673	17.25
408.456	16.25
409.238	16.25
410.021	17.25
410.803	16.25
411.586	19.25
412.368	16.25
413.151	19.25
413.933	17.25
414.715	19.25
415.497	18.25
416.279	19.25
417.061	24.25
417.843	18.25
418.624	22.25
419.406	23.25
420.188	19.25
420.969	23.25
421.751	24.25
422.532	24.25
423.313	24.25
424.095	23.25
424.876	25.25
425.657	26.25
426.438	29.25
427.219	27.25
428	25.25
428.78	28.25
429.561	31.25
430.342	31.25
431.122	30.25
431.903	33.25
432.683	31.25
433.464	35.25
434.244	37.25
435.024	38.25
435.804	41.25
436.584	45.25
437.364	45.25
438.144	45.25
438.924	49.25
439.704	55.25
440.483	55.25
441.263	61.25
442.042	63.25
442.822	70.25
443.601	73.25
444.38	78.25
445.16	86.25
445.939	89.25
446.718	100.25
447.497	105.25
448.276	116.25
449.054	129.25
449.833	137.25
450.612	162.25
451.391	173.25
452.169	190.25
452.948	208.25
453.726	230.25
454.504	260.25
455.282	288.25
456.061	319.25
456.839	359.25
457.617	403.25
458.395	439.25
459.172	497.25
459.95	552.25
460.728	621.25
461.506	689.25
462.283	762.25
463.061	864.25
463.838	970.25
464.615	1067.25
465.393	1192.25
466.17	1323.25
466.947	1468.25
467.724	1637.25
468.501	1836.25
469.278	2026.25
470.055	2237.25
470.831	2500.25
471.608	2757.25
472.385	3037.25
473.161	3353.25
473.938	3688.25
474.714	4047.25
475.49	4460.25
476.266	4915.25
477.043	5387.25
477.819	5896.25
478.595	6452.25
479.371	7069.25
480.146	7747.25
480.922	8423.25
481.698	9254.25
482.473	10050.25
483.249	10978.25
484.024	11943.25
484.8	12928.25
485.575	14106.25
486.35	15389.25
487.126	16596.25
487.901	17990.25
488.676	19436.25
489.451	21032.25
490.225	22631.25
491	24253.25
491.775	26033.25
492.55	27836.25
493.324	29688.25
494.099	31524.25
494.873	33328.25
495.647	35282.25
496.422	37167.25
497.196	39028.25
497.97	40653.25
498.744	42109.25
499.518	43771.25
500.292	45006.25
501.066	46057.25
501.839	46905.25
502.613	47596.25
503.387	48159.25
504.16	48506.25
504.934	48444.25
505.707	48252.25
506.48	47730.25
507.253	47138.25
508.027	46257.25
508.8	45181.25
509.573	44000.25
510.346	42850.25
511.118	41751.25
511.891	40270.25
512.664	38772.25
513.437	37143.25
514.209	35769.25
514.982	34290.25
515.754	32910.25
516.526	31514.25
517.298	30294.25
518.071	29019.25
518.843	27872.25
519.615	26744.25
520.387	25723.25
521.159	24674.25
521.93	23611.25
522.702	22625.25
523.474	21689.25
524.245	20735.25
525.017	19746.25
525.788	18899.25
526.56	18130.25
527.331	17281.25
528.102	16411.25
528.873	15611.25
529.644	14871.25
530.415	14123.25
531.186	13444.25
531.957	12755.25
532.728	12057.25
533.498	11445.25
534.269	10790.25
535.039	10218.25
535.81	9643.25
536.58	9120.25
537.351	8620.25
538.121	8190.25
538.891	7740.25
539.661	7359.25
540.431	6918.25
541.201	6586.25
541.971	6241.25
542.741	5918.25
543.51	5627.25
544.28	5355.25
545.05	5095.25
545.819	4855.25
546.588	4631.25
547.358	4411.25
548.127	4193.25
548.896	3957.25
549.665	3757.25
550.434	3539.25
551.203	3352.25
551.972	3184.25
552.741	3017.25
553.51	2852.25
554.278	2688.25
555.047	2532.25
555.815	2401.25
556.584	2276.25
557.352	2142.25
558.121	2001.25
558.889	1901.25
559.657	1803.25
560.425	1703.25
561.193	1606.25
561.961	1529.25
562.729	1461.25
563.496	1354.25
564.264	1280.25
565.032	1202.25
565.799	1159.25
566.567	1095.25
567.334	1048.25
568.101	984.25
568.869	943.25
569.636	877.25
570.403	825.25
571.17	777.25
571.937	734.25
572.704	685.25
573.471	652.25
574.237	614.25
575.004	582.25
575.771	546.25
576.537	514.25
577.303	484.25
578.07	463.25
578.836	436.25
579.602	411.25
580.368	395.25
581.134	373.25
581.9	359.25
582.666	344.25
583.432	329.25
584.198	303.25
584.964	291.25
585.729	268.25
586.495	262.25
587.26	247.25
588.025	238.25
588.791	218.25
589.556	205.25
590.321	197.25
591.086	189.25
591.851	183.25
592.616	167.25
593.381	164.25
594.146	161.25
594.911	153.25
595.675	143.25
596.44	140.25
597.204	131.25
597.969	125.25
598.733	125.25
599.497	113.25
600.261	110.25
601.025	109.25
601.79	101.25
602.553	96.25
603.317	91.25
604.081	87.25
604.845	88.25
605.609	84.25
606.372	83.25
607.136	75.25
607.899	74.25
608.662	69.25
609.426	68.25
610.189	65.25
610.952	63.25
611.715	60.25
612.478	60.25
613.241	54.25
614.004	58.25
614.767	53.25
615.529	48.25
616.292	47.25
617.055	49.25
617.817	45.25
618.579	41.25
619.342	42.25
620.104	40.25
620.866	39.25
621.628	38.25
622.39	36.25
623.152	37.25
623.914	34.25
624.676	36.25
625.438	34.25
626.199	32.25
626.961	34.25
627.722	31.25
628.484	29.25
629.245	29.25
630.006	30.25
630.768	25.25
631.529	27.25
632.29	28.25
633.051	24.25
633.812	23.25
634.573	23.25
635.333	24.25
636.094	22.25
636.855	23.25
637.615	22.25
638.376	21.25
639.136	22.25
639.896	21.25
640.657	22.25
641.417	20.25
642.177	18.25
642.937	18.25
643.697	18.25
644.457	17.25
645.216	19.25
645.976	16.25
646.736	14.25
647.495	15.25
648.255	17.25
649.014	15.25
649.774	15.25
650.533	15.25
651.292	13.25
652.051	15.25
652.81	11.25
653.569	13.25
654.328	11.25
655.087	14.25
655.846	15.25
656.604	12.25
657.363	12.25
658.121	9.25
658.88	13.25
659.638	12.25
660.397	12.25
661.155	13.25
661.913	10.25
662.671	12.25
663.429	11.25
664.187	10.25
664.945	11.25
665.703	9.25
666.46	11.25
667.218	11.25
667.976	11.25
668.733	10.25
669.49	12.25
670.248	11.25
671.005	8.25
671.762	9.25
672.519	10.25
673.276	9.25
674.033	8.25
674.79	9.25
675.547	9.25
676.304	8.25
677.06	8.25
677.817	8.25
678.574	9.25
679.33	8.25
680.086	9.25
680.843	9.25
681.599	7.25
682.355	7.25
683.111	6.25
683.867	10.25
684.623	8.25
685.379	7.25
686.135	9.25
686.89	9.25
687.646	10.25
688.402	8.25
689.157	7.25
689.912	8.25
690.668	7.25
691.423	7.25
692.178	8.25
692.933	5.25
693.688	8.25
694.443	9.25
695.198	8.25
695.953	8.25
696.708	8.25
697.462	7.25
698.217	7.25
698.972	6.25
699.726	6.25
700.48	5.25
701.235	8.25
701.989	8.25
702.743	5.25
703.497	9.25
704.251	9.25
705.005	8.25
705.759	10.25
706.513	9.25
707.266	9.25
708.02	9.25
708.774	7.25
709.527	9.25
710.28	9.25
711.034	5.25
711.787	10.25
712.54	7.25
713.293	6.25
714.046	6.25
714.799	8.25
715.552	9.25
716.305	7.25
717.058	9.25
717.81	7.25
718.563	7.25
719.315	8.25
720.068	7.25
720.82	7.25
721.573	10.25
722.325	11.25
723.077	9.25
723.829	10.25
724.581	8.25
725.333	9.25
726.085	9.25
726.836	9.25
727.588	8.25
728.34	10.25
729.091	7.25
729.843	11.25
730.594	7.25
731.346	9.25
732.097	9.25
732.848	8.25
733.599	10.25
734.35	9.25
735.101	11.25
735.852	10.25
736.603	8.25
737.354	11.25
738.104	10.25
738.855	8.25
739.605	9.25
740.356	11.25
741.106	10.25
741.856	12.25
742.607	11.25
743.357	9.25
744.107	12.25
744.857	11.25
745.607	11.25
746.357	11.25
747.106	10.25
747.856	11.25
748.606	11.25
749.355	14.25
750.105	10.25
750.854	10.25
751.603	10.25
752.353	10.25
753.102	12.25
753.851	12.25
754.6	10.25
755.349	10.25
756.098	12.25
756.847	12.25
757.595	13.25
758.344	11.25
759.093	12.25
759.841	13.25
760.589	15.25
761.338	14.25
762.086	13.25
762.834	13.25
763.582	14.25
764.331	13.25
765.079	15.25
765.826	14.25
766.574	15.25
767.322	14.25
768.07	16.25
768.817	15.25
769.565	15.25
770.312	13.25
771.06	17.25
771.807	15.25
772.554	13.25
773.302	15.25
774.049	14.25
774.796	15.25
775.543	17.25
776.29	14.25
777.036	17.25
777.783	16.25
778.53	15.25
779.276	17.25
780.023	13.25
780.769	17.25
781.516	14.25
782.262	15.25
783.008	18.25
783.754	17.25
784.5	16.25
785.246	17.25
785.992	17.25
786.738	16.25
787.484	14.25
788.23	18.25
788.975	14.25
789.721	15.25
790.466	13.25
791.212	16.25
791.957	15.25
792.702	15.25
793.447	14.25
794.193	15.25
794.938	14.25
795.683	11.25
796.427	13.25
797.172	14.25
797.917	16.25
798.662	15.25
799.406	11.25
800.151	11.25
800.895	11.25
801.64	14.25
802.384	13.25
803.128	9.25
803.872	13.25
804.616	13.25
805.36	11.25
806.104	9.25
806.848	11.25
807.592	10.25
808.336	10.25
809.079	11.25
809.823	9.25
810.566	9.25
811.31	9.25
812.053	11.25
812.796	10.25
813.539	10.25
814.283	5.25
815.026	10.25
815.769	8.25
816.511	10.25
817.254	8.25
817.997	8.25
818.74	10.25
819.482	9.25
820.225	7.25
820.967	7.25
821.71	8.25
822.452	6.25
823.194	8.25
823.936	9.25
824.678	6.25
825.42	9.25
826.162	6.25
826.904	6.25
827.646	10.25
828.388	7.25
829.129	7.25
829.871	8.25
830.612	7.25
831.354	6.25
832.095	6.25
832.836	7.25
833.577	5.25
834.319	6.25
835.06	5.25
835.801	6.25
836.542	7.25
837.282	6.25
838.023	5.25
838.764	5.25
839.504	8.25
840.245	5.25
840.985	4.25
841.726	7.25
842.466	4.25
843.206	7.25
843.946	5.25
844.687	4.25
845.427	5.25
846.166	8.25
846.906	7.25
847.646	6.25
848.386	3.25
849.125	5.25
849.865	7.25
850.605	7.25
851.344	3.25
852.083	6.25
852.823	3.25
853.562	3.25
854.301	4.25
855.04	3.25
855.779	3.25
856.518	4.25
857.257	4.25
857.995	6.25
858.734	3.25
859.473	5.25
860.211	3.25
860.95	6.25
861.688	3.25
862.426	4.25
863.165	4.25
863.903	2.25
864.641	4.25
865.379	4.25
866.117	5.25
866.855	3.25
867.593	3.25
868.33	3.25
869.068	1.25
869.806	2.25
870.543	2.25
871.28	4.25
872.018	4.25
872.755	2.25
873.492	4.25
874.229	0.25
874.967	3.25
875.703	2.25
876.44	3.25
877.177	2.25
877.914	3.25
878.651	3.25
879.387	1.25
880.124	0.25
880.86	2.25
881.597	0.25
882.333	5.25
883.069	2.25
883.806	2.25
884.542	1.25
885.278	0.25
886.014	1.25
886.749	3.25
887.485	1.25
888.221	2.25
888.957	2.25
889.692	2.25
890.428	0.25
891.163	3.25
891.899	0.25
892.634	1.25
893.369	2.25
894.104	2.25
894.839	1.25
895.574	2.25
896.309	3.25
897.044	2.25
897.779	4.25
898.514	0.25
899.248	0.25
899.983	2.25
900.717	1.25
901.452	2.25
902.186	0.25
902.92	0.25
903.654	1.25
904.389	0.25
905.123	2.25
905.857	0.25
906.59	3.25
907.324	3.25
908.058	0.25
908.792	-0.75
909.525	1.25
910.259	3.25
910.992	0.25
911.726	2.25
912.459	2.25
913.192	2.25
913.925	-0.75
914.658	2.25
915.391	2.25
916.124	1.25
916.857	2.25
917.59	4.25
918.323	-1.75
919.055	1.25
919.788	-0.75
920.521	3.25
921.253	0.25
921.985	3.25
922.718	2.25
923.45	2.25
924.182	1.25
924.914	-0.75
925.646	1.25
926.378	1.25
927.11	-2.75
927.841	2.25
928.573	-0.75
929.305	1.25
930.036	-0.75
930.768	1.25
931.499	-0.75
932.23	0.25
932.962	0.25
933.693	1.25
934.424	-0.75
935.155	1.25
935.886	-0.75
936.617	1.25
937.348	1.25
938.078	0.25
938.809	1.25
939.54	0.25
940.27	0.25
941.001	-1.75
941.731	2.25
942.461	0.25
943.191	3.25
943.922	2.25
944.652	0.25
945.382	1.25
946.112	-0.75
946.841	3.25
947.571	1.25
948.301	0.25
949.031	3.25
949.76	-0.75
950.49	2.25
951.219	-0.75
951.948	0.25
952.678	2.25
953.407	-0.75
954.136	2.25
954.865	0.25
955.594	-1.75
956.323	1.25
957.052	1.25
957.78	0.25
958.509	0.25
959.238	2.25
959.966	0.25
960.695	-0.75
961.423	2.25
962.151	0.25
962.88	-0.75
963.608	1.25
964.336	1.25
965.064	-1.75
965.792	2.25
966.52	2.25
967.247	1.25
967.975	1.25
968.703	0.25
969.43	1.25
970.158	1.25
970.885	0.25
971.613	0.25
972.34	-1.75
973.067	0.25
973.794	0.25
974.521	1.25
975.248	1.25
975.975	0.25
976.702	-0.75
977.429	-1.75
978.156	1.25
978.882	1.25
979.609	1.25
980.335	1.25
981.062	-1.75
981.788	0.25
982.514	-0.75
983.24	2.25
983.967	0.25
984.693	-0.75
985.419	1.25
986.144	0.25
986.87	0.25
987.596	-0.75
988.322	3.25
989.047	0.25
989.773	2.25
990.498	0.25
991.224	1.25
991.949	1.25
992.674	0.25
993.399	2.25
994.124	0.25
994.849	1.25
995.574	1.25
996.299	-0.75
997.024	1.25
997.749	-0.75
998.473	0.25
999.198	-0.75
999.922	1.25
1000.647	1.25
1001.371	5.25
1002.095	-0.75
1002.82	-1.75
1003.544	-1.75
1004.268	5.25
1004.992	5.25
1005.716	3.25
1006.439	7.25
1007.163	5.25
1007.887	7.25
1008.611	0.25
1009.334	2.25
1010.058	1.25
1010.781	1.25
1011.504	1.25
1012.228	-1.75
1012.951	0.25
1013.674	-2.75
1014.397	0.25
1015.12	1.25
